InwC 3648.00A  relative to Inci 1215.00A scaled to 1215A.
Hden   Phi(H)  Eq_Width (A)
 7.000	17.000	5.3688e-02
 7.000	17.250	7.1245e-02
 7.000	17.500	9.1136e-02
 7.000	17.750	9.4103e-02
 7.000	18.000	9.5519e-02
 7.000	18.250	9.5591e-02
 7.000	18.500	9.5587e-02
 7.000	18.750	9.5587e-02
 7.000	19.000	9.5597e-02
 7.000	19.250	9.5607e-02
 7.000	19.500	9.5610e-02
 7.000	19.750	9.5611e-02
 7.000	20.000	9.5612e-02
 7.000	20.250	9.5612e-02
 7.000	20.500	9.5613e-02
 7.000	20.750	9.5613e-02
 7.000	21.000	9.5613e-02
 7.000	21.250	9.5613e-02
 7.000	21.500	9.5613e-02
 7.000	21.750	9.5613e-02
 7.000	22.000	9.5613e-02
 7.000	22.250	9.5613e-02
 7.000	22.500	9.5614e-02
 7.000	22.750	9.5615e-02
 7.000	23.000	9.5615e-02
 7.000	23.250	9.5616e-02
 7.000	23.500	9.5616e-02
 7.000	23.750	9.5616e-02
 7.000	24.000	9.5616e-02
 7.250	17.000	3.8862e-02
 7.250	17.250	5.5245e-02
 7.250	17.500	7.2185e-02
 7.250	17.750	9.1149e-02
 7.250	18.000	9.4126e-02
 7.250	18.250	9.5519e-02
 7.250	18.500	9.5591e-02
 7.250	18.750	9.5588e-02
 7.250	19.000	9.5587e-02
 7.250	19.250	9.5598e-02
 7.250	19.500	9.5607e-02
 7.250	19.750	9.5610e-02
 7.250	20.000	9.5611e-02
 7.250	20.250	9.5612e-02
 7.250	20.500	9.5612e-02
 7.250	20.750	9.5612e-02
 7.250	21.000	9.5613e-02
 7.250	21.250	9.5612e-02
 7.250	21.500	9.5613e-02
 7.250	21.750	9.5613e-02
 7.250	22.000	9.5613e-02
 7.250	22.250	9.5613e-02
 7.250	22.500	9.5613e-02
 7.250	22.750	9.5613e-02
 7.250	23.000	9.5613e-02
 7.250	23.250	9.5622e-02
 7.250	23.500	9.5613e-02
 7.250	23.750	9.5613e-02
 7.250	24.000	9.5614e-02
 7.500	17.000	2.6100e-02
 7.500	17.250	3.9889e-02
 7.500	17.500	5.6798e-02
 7.500	17.750	7.3230e-02
 7.500	18.000	9.1161e-02
 7.500	18.250	9.4149e-02
 7.500	18.500	9.5520e-02
 7.500	18.750	9.5591e-02
 7.500	19.000	9.5587e-02
 7.500	19.250	9.5587e-02
 7.500	19.500	9.5598e-02
 7.500	19.750	9.5607e-02
 7.500	20.000	9.5610e-02
 7.500	20.250	9.5611e-02
 7.500	20.500	9.5612e-02
 7.500	20.750	9.5612e-02
 7.500	21.000	9.5612e-02
 7.500	21.250	9.5612e-02
 7.500	21.500	9.5613e-02
 7.500	21.750	9.5613e-02
 7.500	22.000	9.5612e-02
 7.500	22.250	9.5613e-02
 7.500	22.500	9.5613e-02
 7.500	22.750	9.5613e-02
 7.500	23.000	9.5613e-02
 7.500	23.250	9.5613e-02
 7.500	23.500	9.5613e-02
 7.500	23.750	9.5613e-02
 7.500	24.000	9.5613e-02
 7.750	17.000	1.7580e-02
 7.750	17.250	2.6762e-02
 7.750	17.500	4.1173e-02
 7.750	17.750	5.8803e-02
 7.750	18.000	7.4487e-02
 7.750	18.250	9.1172e-02
 7.750	18.500	9.4173e-02
 7.750	18.750	9.5520e-02
 7.750	19.000	9.5592e-02
 7.750	19.250	9.5589e-02
 7.750	19.500	9.5587e-02
 7.750	19.750	9.5598e-02
 7.750	20.000	9.5607e-02
 7.750	20.250	9.5610e-02
 7.750	20.500	9.5611e-02
 7.750	20.750	9.5612e-02
 7.750	21.000	9.5612e-02
 7.750	21.250	9.5612e-02
 7.750	21.500	9.5612e-02
 7.750	21.750	9.5613e-02
 7.750	22.000	9.5613e-02
 7.750	22.250	9.5612e-02
 7.750	22.500	9.5612e-02
 7.750	22.750	9.5613e-02
 7.750	23.000	9.5613e-02
 7.750	23.250	9.5613e-02
 7.750	23.500	9.5613e-02
 7.750	23.750	9.5613e-02
 7.750	24.000	9.5612e-02
 8.000	17.000	1.2132e-02
 8.000	17.250	1.8002e-02
 8.000	17.500	2.7641e-02
 8.000	17.750	4.2900e-02
 8.000	18.000	6.1313e-02
 8.000	18.250	7.5769e-02
 8.000	18.500	9.1174e-02
 8.000	18.750	9.4183e-02
 8.000	19.000	9.5520e-02
 8.000	19.250	9.5591e-02
 8.000	19.500	9.5588e-02
 8.000	19.750	9.5587e-02
 8.000	20.000	9.5598e-02
 8.000	20.250	9.5607e-02
 8.000	20.500	9.5610e-02
 8.000	20.750	9.5611e-02
 8.000	21.000	9.5612e-02
 8.000	21.250	9.5612e-02
 8.000	21.500	9.5612e-02
 8.000	21.750	9.5612e-02
 8.000	22.000	9.5613e-02
 8.000	22.250	9.5613e-02
 8.000	22.500	9.5613e-02
 8.000	22.750	9.5613e-02
 8.000	23.000	9.5612e-02
 8.000	23.250	9.5613e-02
 8.000	23.500	9.5613e-02
 8.000	23.750	9.5613e-02
 8.000	24.000	9.5613e-02
 8.250	17.000	8.6590e-03
 8.250	17.250	1.2503e-02
 8.250	17.500	1.8780e-02
 8.250	17.750	2.9264e-02
 8.250	18.000	4.5999e-02
 8.250	18.250	6.4708e-02
 8.250	18.500	7.7879e-02
 8.250	18.750	9.1181e-02
 8.250	19.000	9.4210e-02
 8.250	19.250	9.5521e-02
 8.250	19.500	9.5591e-02
 8.250	19.750	9.5587e-02
 8.250	20.000	9.5587e-02
 8.250	20.250	9.5598e-02
 8.250	20.500	9.5607e-02
 8.250	20.750	9.5610e-02
 8.250	21.000	9.5611e-02
 8.250	21.250	9.5612e-02
 8.250	21.500	9.5612e-02
 8.250	21.750	9.5612e-02
 8.250	22.000	9.5613e-02
 8.250	22.250	9.5612e-02
 8.250	22.500	9.5612e-02
 8.250	22.750	9.5612e-02
 8.250	23.000	9.5613e-02
 8.250	23.250	9.5613e-02
 8.250	23.500	9.5613e-02
 8.250	23.750	9.5612e-02
 8.250	24.000	9.5613e-02
 8.500	17.000	6.3140e-03
 8.500	17.250	8.9303e-03
 8.500	17.500	1.3091e-02
 8.500	17.750	2.0165e-02
 8.500	18.000	3.2210e-02
 8.500	18.250	5.0835e-02
 8.500	18.500	6.8592e-02
 8.500	18.750	8.0089e-02
 8.500	19.000	9.1184e-02
 8.500	19.250	9.4240e-02
 8.500	19.500	9.5521e-02
 8.500	19.750	9.5591e-02
 8.500	20.000	9.5587e-02
 8.500	20.250	9.5587e-02
 8.500	20.500	9.5598e-02
 8.500	20.750	9.5607e-02
 8.500	21.000	9.5610e-02
 8.500	21.250	9.5611e-02
 8.500	21.500	9.5612e-02
 8.500	21.750	9.5612e-02
 8.500	22.000	9.5612e-02
 8.500	22.250	9.5612e-02
 8.500	22.500	9.5612e-02
 8.500	22.750	9.5612e-02
 8.500	23.000	9.5612e-02
 8.500	23.250	9.5612e-02
 8.500	23.500	9.5612e-02
 8.500	23.750	9.5612e-02
 8.500	24.000	9.5613e-02
 8.750	17.000	4.6703e-03
 8.750	17.250	6.5096e-03
 8.750	17.500	9.3678e-03
 8.750	17.750	1.4110e-02
 8.750	18.000	2.2510e-02
 8.750	18.250	3.6797e-02
 8.750	18.500	5.6523e-02
 8.750	18.750	7.1870e-02
 8.750	19.000	8.1955e-02
 8.750	19.250	9.1176e-02
 8.750	19.500	9.4272e-02
 8.750	19.750	9.5522e-02
 8.750	20.000	9.5591e-02
 8.750	20.250	9.5586e-02
 8.750	20.500	9.5587e-02
 8.750	20.750	9.5597e-02
 8.750	21.000	9.5607e-02
 8.750	21.250	9.5610e-02
 8.750	21.500	9.5611e-02
 8.750	21.750	9.5612e-02
 8.750	22.000	9.5612e-02
 8.750	22.250	9.5612e-02
 8.750	22.500	9.5612e-02
 8.750	22.750	9.5613e-02
 8.750	23.000	9.5613e-02
 8.750	23.250	9.5613e-02
 8.750	23.500	9.5613e-02
 8.750	23.750	9.5613e-02
 8.750	24.000	9.5613e-02
 9.000	17.000	3.4978e-03
 9.000	17.250	4.8150e-03
 9.000	17.500	6.8363e-03
 9.000	17.750	1.0139e-02
 9.000	18.000	1.5952e-02
 9.000	18.250	2.6289e-02
 9.000	18.500	4.2286e-02
 9.000	18.750	6.1670e-02
 9.000	19.000	7.4555e-02
 9.000	19.250	8.4359e-02
 9.000	19.500	9.1153e-02
 9.000	19.750	9.4303e-02
 9.000	20.000	9.5522e-02
 9.000	20.250	9.5591e-02
 9.000	20.500	9.5586e-02
 9.000	20.750	9.5587e-02
 9.000	21.000	9.5598e-02
 9.000	21.250	9.5607e-02
 9.000	21.500	9.5610e-02
 9.000	21.750	9.5611e-02
 9.000	22.000	9.5612e-02
 9.000	22.250	9.5612e-02
 9.000	22.500	9.5612e-02
 9.000	22.750	9.5612e-02
 9.000	23.000	9.5612e-02
 9.000	23.250	9.5613e-02
 9.000	23.500	9.5613e-02
 9.000	23.750	9.5612e-02
 9.000	24.000	9.5612e-02
 9.250	17.000	2.6535e-03
 9.250	17.250	3.6021e-03
 9.250	17.500	5.0599e-03
 9.250	17.750	7.4314e-03
 9.250	18.000	1.1616e-02
 9.250	18.250	1.9113e-02
 9.250	18.500	3.0959e-02
 9.250	18.750	4.7762e-02
 9.250	19.000	6.6420e-02
 9.250	19.250	7.8470e-02
 9.250	19.500	8.7268e-02
 9.250	19.750	9.1115e-02
 9.250	20.000	9.4329e-02
 9.250	20.250	9.5522e-02
 9.250	20.500	9.5590e-02
 9.250	20.750	9.5586e-02
 9.250	21.000	9.5587e-02
 9.250	21.250	9.5597e-02
 9.250	21.500	9.5601e-02
 9.250	21.750	9.5553e-02
 9.250	22.000	9.5528e-02
 9.250	22.250	9.5554e-02
 9.250	22.500	9.5612e-02
 9.250	22.750	9.5612e-02
 9.250	23.000	9.5612e-02
 9.250	23.250	9.5612e-02
 9.250	23.500	9.5612e-02
 9.250	23.750	9.5613e-02
 9.250	24.000	9.5612e-02
 9.500	17.000	2.0458e-03
 9.500	17.250	2.7309e-03
 9.500	17.500	3.7850e-03
 9.500	17.750	5.5249e-03
 9.500	18.000	8.6308e-03
 9.500	18.250	1.4186e-02
 9.500	18.500	2.2902e-02
 9.500	18.750	3.5525e-02
 9.500	19.000	5.2424e-02
 9.500	19.250	7.1019e-02
 9.500	19.500	8.0631e-02
 9.500	19.750	8.9050e-02
 9.500	20.000	9.1064e-02
 9.500	20.250	9.4347e-02
 9.500	20.500	9.5522e-02
 9.500	20.750	9.5590e-02
 9.500	21.000	9.5580e-02
 9.500	21.250	9.5558e-02
 9.500	21.500	9.5520e-02
 9.500	21.750	9.5517e-02
 9.500	22.000	9.5498e-02
 9.500	22.250	9.5470e-02
 9.500	22.500	9.5455e-02
 9.500	22.750	9.5460e-02
 9.500	23.000	9.5462e-02
 9.500	23.250	9.5463e-02
 9.500	23.500	9.5520e-02
 9.500	23.750	9.5519e-02
 9.500	24.000	9.5519e-02
 9.750	17.000	1.6068e-03
 9.750	17.250	2.1023e-03
 9.750	17.500	2.8697e-03
 9.750	17.750	4.1520e-03
 9.750	18.000	6.4896e-03
 9.750	18.250	1.0689e-02
 9.750	18.500	1.7176e-02
 9.750	18.750	2.6512e-02
 9.750	19.000	3.9583e-02
 9.750	19.250	5.7457e-02
 9.750	19.500	7.3357e-02
 9.750	19.750	8.3174e-02
 9.750	20.000	8.8936e-02
 9.750	20.250	9.1021e-02
 9.750	20.500	9.4361e-02
 9.750	20.750	9.5519e-02
 9.750	21.000	9.5590e-02
 9.750	21.250	9.5584e-02
 9.750	21.500	9.5578e-02
 9.750	21.750	9.5550e-02
 9.750	22.000	9.5521e-02
 9.750	22.250	9.5512e-02
 9.750	22.500	9.5492e-02
 9.750	22.750	9.5472e-02
 9.750	23.000	9.5462e-02
 9.750	23.250	9.5456e-02
 9.750	23.500	9.5456e-02
 9.750	23.750	9.5467e-02
 9.750	24.000	9.5459e-02
10.000	17.000	1.2926e-03
10.000	17.250	1.6496e-03
10.000	17.500	2.2100e-03
10.000	17.750	3.1614e-03
10.000	18.000	4.9276e-03
10.000	18.250	8.0544e-03
10.000	18.500	1.2912e-02
10.000	18.750	1.9825e-02
10.000	19.000	2.9516e-02
10.000	19.250	4.2999e-02
10.000	19.500	6.1265e-02
10.000	19.750	7.4897e-02
10.000	20.000	8.5454e-02
10.000	20.250	8.8817e-02
10.000	20.500	9.0990e-02
10.000	20.750	9.4400e-02
10.000	21.000	9.5510e-02
10.000	21.250	9.5590e-02
10.000	21.500	9.5584e-02
10.000	21.750	9.5584e-02
10.000	22.000	9.5583e-02
10.000	22.250	9.5523e-02
10.000	22.500	9.5520e-02
10.000	22.750	9.5507e-02
10.000	23.000	9.5493e-02
10.000	23.250	9.5483e-02
10.000	23.500	9.5475e-02
10.000	23.750	9.5472e-02
10.000	24.000	9.5470e-02
10.250	17.000	1.0685e-03
10.250	17.250	1.3252e-03
10.250	17.500	1.7327e-03
10.250	17.750	2.4418e-03
10.250	18.000	3.7678e-03
10.250	18.250	6.1197e-03
10.250	18.500	9.7203e-03
10.250	18.750	1.4840e-02
10.250	19.000	2.1959e-02
10.250	19.250	3.2135e-02
10.250	19.500	4.6887e-02
10.250	19.750	6.2709e-02
10.250	20.000	7.6858e-02
10.250	20.250	8.6982e-02
10.250	20.500	8.8706e-02
10.250	20.750	9.0936e-02
10.250	21.000	9.4472e-02
10.250	21.250	9.5498e-02
10.250	21.500	9.5589e-02
10.250	21.750	9.5584e-02
10.250	22.000	9.5585e-02
10.250	22.250	9.5593e-02
10.250	22.500	9.5538e-02
10.250	22.750	9.5524e-02
10.250	23.000	9.5518e-02
10.250	23.250	9.5509e-02
10.250	23.500	9.5502e-02
10.250	23.750	9.5496e-02
10.250	24.000	9.5493e-02
10.500	17.000	9.0782e-04
10.500	17.250	1.0926e-03
10.500	17.500	1.3900e-03
10.500	17.750	1.9174e-03
10.500	18.000	2.9059e-03
10.500	18.250	4.6667e-03
10.500	18.500	7.2668e-03
10.500	18.750	1.1012e-02
10.500	19.000	1.6223e-02
10.500	19.250	2.3557e-02
10.500	19.500	3.4059e-02
10.500	19.750	4.8647e-02
10.500	20.000	6.4303e-02
10.500	20.250	7.8897e-02
10.500	20.500	8.7091e-02
10.500	20.750	8.8574e-02
10.500	21.000	9.0975e-02
10.500	21.250	9.4624e-02
10.500	21.500	9.5479e-02
10.500	21.750	9.5584e-02
10.500	22.000	9.5584e-02
10.500	22.250	9.5585e-02
10.500	22.500	9.5595e-02
10.500	22.750	9.5579e-02
10.500	23.000	9.5526e-02
10.500	23.250	9.5524e-02
10.500	23.500	9.5519e-02
10.500	23.750	9.5514e-02
10.500	24.000	9.5510e-02
10.750	17.000	7.9128e-04
10.750	17.250	9.2461e-04
10.750	17.500	1.1419e-03
10.750	17.750	1.5323e-03
10.750	18.000	2.2634e-03
10.750	18.250	3.5379e-03
10.750	18.500	5.4371e-03
10.750	18.750	8.1067e-03
10.750	19.000	1.1906e-02
10.750	19.250	1.7212e-02
10.750	19.500	2.4729e-02
10.750	19.750	3.5444e-02
10.750	20.000	5.0083e-02
10.750	20.250	6.6004e-02
10.750	20.500	8.1201e-02
10.750	20.750	8.6955e-02
10.750	21.000	8.8568e-02
10.750	21.250	9.1148e-02
10.750	21.500	9.4821e-02
10.750	21.750	9.5453e-02
10.750	22.000	9.5573e-02
10.750	22.250	9.5582e-02
10.750	22.500	9.5585e-02
10.750	22.750	9.5596e-02
10.750	23.000	9.5598e-02
10.750	23.250	9.5539e-02
10.750	23.500	9.5527e-02
10.750	23.750	9.5524e-02
10.750	24.000	9.5522e-02
11.000	17.000	7.0239e-04
11.000	17.250	8.0140e-04
11.000	17.500	9.6008e-04
11.000	17.750	1.2468e-03
11.000	18.000	1.7771e-03
11.000	18.250	2.6858e-03
11.000	18.500	4.0818e-03
11.000	18.750	6.0024e-03
11.000	19.000	8.7612e-03
11.000	19.250	1.2550e-02
11.000	19.500	1.7916e-02
11.000	19.750	2.5518e-02
11.000	20.000	3.6539e-02
11.000	20.250	5.1511e-02
11.000	20.500	6.7864e-02
11.000	20.750	8.3085e-02
11.000	21.000	8.6840e-02
11.000	21.250	8.8630e-02
11.000	21.500	9.1573e-02
11.000	21.750	9.5022e-02
11.000	22.000	9.5426e-02
11.000	22.250	9.5560e-02
11.000	22.500	9.5579e-02
11.000	22.750	9.5583e-02
11.000	23.000	9.5596e-02
11.000	23.250	9.5604e-02
11.000	23.500	9.5580e-02
11.000	23.750	9.5531e-02
11.000	24.000	9.5527e-02
11.250	17.000	6.3802e-04
11.250	17.250	7.0749e-04
11.250	17.500	8.2354e-04
11.250	17.750	1.0316e-03
11.250	18.000	1.4097e-03
11.250	18.250	2.0481e-03
11.250	18.500	2.9994e-03
11.250	18.750	4.4148e-03
11.250	19.000	6.3792e-03
11.250	19.250	9.1117e-03
11.250	19.500	1.2954e-02
11.250	19.750	1.8380e-02
11.250	20.000	2.6171e-02
11.250	20.250	3.7602e-02
11.250	20.500	5.3070e-02
11.250	20.750	6.9852e-02
11.250	21.000	8.3954e-02
11.250	21.250	8.6803e-02
11.250	21.500	8.8861e-02
11.250	21.750	9.2320e-02
11.250	22.000	9.5133e-02
11.250	22.250	9.5385e-02
11.250	22.500	9.5542e-02
11.250	22.750	9.5575e-02
11.250	23.000	9.5581e-02
11.250	23.250	9.5594e-02
11.250	23.500	9.5605e-02
11.250	23.750	9.5600e-02
11.250	24.000	9.5560e-02
11.500	17.000	5.9432e-04
11.500	17.250	6.3951e-04
11.500	17.500	7.2016e-04
11.500	17.750	8.6675e-04
11.500	18.000	1.1306e-03
11.500	18.250	1.5767e-03
11.500	18.500	2.2438e-03
11.500	18.750	3.2251e-03
11.500	19.000	4.6402e-03
11.500	19.250	6.5910e-03
11.500	19.500	9.3523e-03
11.500	19.750	1.3263e-02
11.500	20.000	1.8810e-02
11.500	20.250	2.6822e-02
11.500	20.500	3.8648e-02
11.500	20.750	5.4660e-02
11.500	21.000	7.1889e-02
11.500	21.250	8.4048e-02
11.500	21.500	8.6822e-02
11.500	21.750	8.9315e-02
11.500	22.000	9.3210e-02
11.500	22.250	9.5070e-02
11.500	22.500	9.5339e-02
11.500	22.750	9.5515e-02
11.500	23.000	9.5567e-02
11.500	23.250	9.5577e-02
11.500	23.500	9.5593e-02
11.500	23.750	9.5606e-02
11.500	24.000	9.5606e-02
11.750	17.000	5.6683e-04
11.750	17.250	5.9325e-04
11.750	17.500	6.4494e-04
11.750	17.750	7.4412e-04
11.750	18.000	9.2560e-04
11.750	18.250	1.2323e-03
11.750	18.500	1.6952e-03
11.750	18.750	2.3932e-03
11.750	19.000	3.3704e-03
11.750	19.250	4.7699e-03
11.750	19.500	6.7481e-03
11.750	19.750	9.5551e-03
11.750	20.000	1.3554e-02
11.750	20.250	1.9158e-02
11.750	20.500	2.7452e-02
11.750	20.750	3.9700e-02
11.750	21.000	5.6377e-02
11.750	21.250	7.3778e-02
11.750	21.500	8.3842e-02
11.750	21.750	8.6928e-02
11.750	22.000	9.0002e-02
11.750	22.250	9.3918e-02
11.750	22.500	9.4986e-02
11.750	22.750	9.5283e-02
11.750	23.000	9.5483e-02
11.750	23.250	9.5556e-02
11.750	23.500	9.5572e-02
11.750	23.750	9.5590e-02
11.750	24.000	9.5605e-02
12.000	17.000	5.3885e-04
12.000	17.250	5.6453e-04
12.000	17.500	5.9391e-04
12.000	17.750	6.5588e-04
12.000	18.000	7.7564e-04
12.000	18.250	9.8395e-04
12.000	18.500	1.3066e-03
12.000	18.750	1.7829e-03
12.000	19.000	2.4756e-03
12.000	19.250	3.4689e-03
12.000	19.500	4.8903e-03
12.000	19.750	6.9105e-03
12.000	20.000	9.7574e-03
12.000	20.250	1.3807e-02
12.000	20.500	1.9618e-02
12.000	20.750	2.8209e-02
12.000	21.000	4.0777e-02
12.000	21.250	5.7974e-02
12.000	21.500	7.4552e-02
12.000	21.750	8.3572e-02
12.000	22.000	8.7115e-02
12.000	22.250	9.0880e-02
12.000	22.500	9.4145e-02
12.000	22.750	9.4883e-02
12.000	23.000	9.5206e-02
12.000	23.250	9.5433e-02
12.000	23.500	9.5541e-02
12.000	23.750	9.5564e-02
12.000	24.000	9.5586e-02
12.250	17.000	3.1144e-04
12.250	17.250	5.4815e-04
12.250	17.500	5.6412e-04
12.250	17.750	5.9893e-04
12.250	18.000	6.7350e-04
12.250	18.250	8.1226e-04
12.250	18.500	1.0312e-03
12.250	18.750	1.3607e-03
12.250	19.000	1.8448e-03
12.250	19.250	2.5593e-03
12.250	19.500	3.5695e-03
12.250	19.750	5.0086e-03
12.250	20.000	7.0342e-03
12.250	20.250	9.9477e-03
12.250	20.500	1.4074e-02
12.250	20.750	2.0036e-02
12.250	21.000	2.8931e-02
12.250	21.250	4.1790e-02
12.250	21.500	5.8499e-02
12.250	21.750	7.5506e-02
12.250	22.000	8.3162e-02
12.250	22.250	8.7412e-02
12.250	22.500	9.1630e-02
12.250	22.750	9.4116e-02
12.250	23.000	9.4755e-02
12.250	23.250	9.5101e-02
12.250	23.500	9.5368e-02
12.250	23.750	9.5518e-02
12.250	24.000	9.5553e-02
12.500	17.000	1.4255e-04
12.500	17.250	3.5374e-04
12.500	17.500	5.5029e-04
12.500	17.750	5.7078e-04
12.500	18.000	6.1407e-04
12.500	18.250	6.9811e-04
12.500	18.500	8.4025e-04
12.500	18.750	1.0676e-03
12.500	19.000	1.4067e-03
12.500	19.250	1.9096e-03
12.500	19.500	2.6267e-03
12.500	19.750	3.6472e-03
12.500	20.000	5.1030e-03
12.500	20.250	7.1686e-03
12.500	20.500	1.0107e-02
12.500	20.750	1.4375e-02
12.500	21.000	2.0596e-02
12.500	21.250	2.9749e-02
12.500	21.500	4.2184e-02
12.500	21.750	5.9777e-02
12.500	22.000	7.5739e-02
12.500	22.250	8.2771e-02
12.500	22.500	8.8237e-02
12.500	22.750	9.1934e-02
12.500	23.000	9.3873e-02
12.500	23.250	9.4545e-02
12.500	23.500	9.4948e-02
12.500	23.750	9.5270e-02
12.500	24.000	9.5487e-02
12.750	17.000	7.6626e-05
12.750	17.250	1.7012e-04
12.750	17.500	3.7753e-04
12.750	17.750	5.5671e-04
12.750	18.000	5.8115e-04
12.750	18.250	6.2551e-04
12.750	18.500	7.1243e-04
12.750	18.750	8.6255e-04
12.750	19.000	1.0972e-03
12.750	19.250	1.4445e-03
12.750	19.500	1.9493e-03
12.750	19.750	2.6731e-03
12.750	20.000	3.7078e-03
12.750	20.250	5.1838e-03
12.750	20.500	7.2883e-03
12.750	20.750	1.0319e-02
12.750	21.000	1.4729e-02
12.750	21.250	2.1257e-02
12.750	21.500	3.0137e-02
12.750	21.750	4.3356e-02
12.750	22.000	6.0798e-02
12.750	22.250	7.4978e-02
12.750	22.500	8.2416e-02
12.750	22.750	8.7845e-02
12.750	23.000	9.1599e-02
12.750	23.250	9.3460e-02
12.750	23.500	9.4249e-02
12.750	23.750	9.4722e-02
12.750	24.000	9.5122e-02
13.000	17.000	1.3580e-05
13.000	17.250	3.2510e-05
13.000	17.500	1.2288e-04
13.000	17.750	2.9778e-04
13.000	18.000	4.4856e-04
13.000	18.250	5.1333e-04
13.000	18.500	6.3128e-04
13.000	18.750	7.2239e-04
13.000	19.000	8.7778e-04
13.000	19.250	1.1175e-03
13.000	19.500	1.4748e-03
13.000	19.750	1.9840e-03
13.000	20.000	2.7148e-03
13.000	20.250	3.7615e-03
13.000	20.500	5.2648e-03
13.000	20.750	7.4378e-03
13.000	21.000	1.0592e-02
13.000	21.250	1.5230e-02
13.000	21.500	2.1640e-02
13.000	21.750	3.1280e-02
13.000	22.000	4.4533e-02
13.000	22.250	6.1200e-02
13.000	22.500	7.3823e-02
13.000	22.750	8.1326e-02
13.000	23.000	8.6958e-02
13.000	23.250	9.0785e-02
13.000	23.500	9.2829e-02
13.000	23.750	9.3795e-02
13.000	24.000	9.4373e-02
13.250	17.000	8.0658e-06
13.250	17.250	1.5391e-05
13.250	17.500	3.8025e-05
13.250	17.750	9.3498e-05
13.250	18.000	2.3531e-04
13.250	18.250	4.0658e-04
13.250	18.500	4.8617e-04
13.250	18.750	6.3687e-04
13.250	19.000	7.3037e-04
13.250	19.250	8.8905e-04
13.250	19.500	1.1356e-03
13.250	19.750	1.4931e-03
13.250	20.000	2.0074e-03
13.250	20.250	2.7482e-03
13.250	20.500	3.8160e-03
13.250	20.750	5.3635e-03
13.250	21.000	7.6295e-03
13.250	21.250	1.0978e-02
13.250	21.500	1.5595e-02
13.250	21.750	2.2559e-02
13.250	22.000	3.2316e-02
13.250	22.250	4.4698e-02
13.250	22.500	5.9976e-02
13.250	22.750	7.1248e-02
13.250	23.000	7.8784e-02
13.250	23.250	8.4803e-02
13.250	23.500	8.9498e-02
13.250	23.750	9.1883e-02
13.250	24.000	9.3104e-02
13.500	17.000	4.8560e-06
13.500	17.250	9.4650e-06
13.500	17.500	2.0741e-05
13.500	17.750	4.7984e-05
13.500	18.000	1.1432e-04
13.500	18.250	2.6905e-04
13.500	18.500	4.2387e-04
13.500	18.750	5.2387e-04
13.500	19.000	6.4099e-04
13.500	19.250	7.3687e-04
13.500	19.500	8.9909e-04
13.500	19.750	1.1444e-03
13.500	20.000	1.5059e-03
13.500	20.250	2.0275e-03
13.500	20.500	2.7831e-03
13.500	20.750	3.8769e-03
13.500	21.000	5.4853e-03
13.500	21.250	7.8829e-03
13.500	21.500	1.1193e-02
13.500	21.750	1.6288e-02
13.500	22.000	2.3113e-02
13.500	22.250	3.1600e-02
13.500	22.500	4.3018e-02
13.500	22.750	5.7402e-02
13.500	23.000	6.8204e-02
13.500	23.250	7.5712e-02
13.500	23.500	8.2359e-02
13.500	23.750	8.7683e-02
13.500	24.000	9.0502e-02
13.750	17.000	2.8807e-06
13.750	17.250	5.7613e-06
13.750	17.500	1.2510e-05
13.750	17.750	2.5103e-05
13.750	18.000	6.1975e-05
13.750	18.250	1.3630e-04
13.750	18.500	2.7786e-04
13.750	18.750	4.3761e-04
13.750	19.000	5.5547e-04
13.750	19.250	6.4379e-04
13.750	19.500	7.4099e-04
13.750	19.750	9.0436e-04
13.750	20.000	1.1532e-03
13.750	20.250	1.5188e-03
13.750	20.500	2.0499e-03
13.750	20.750	2.8247e-03
13.750	21.000	3.9656e-03
13.750	21.250	5.6676e-03
13.750	21.500	8.0669e-03
13.750	21.750	1.1754e-02
13.750	22.000	1.6659e-02
13.750	22.250	2.2279e-02
13.750	22.500	2.9154e-02
13.750	22.750	3.9908e-02
13.750	23.000	5.3717e-02
13.750	23.250	6.4266e-02
13.750	23.500	7.2106e-02
13.750	23.750	7.9263e-02
13.750	24.000	8.5261e-02
14.000	17.000	1.7284e-06
14.000	17.250	3.4568e-06
14.000	17.500	7.7366e-06
14.000	17.750	1.5309e-05
14.000	18.000	3.1523e-05
14.000	18.250	7.3745e-05
14.000	18.500	1.5226e-04
14.000	18.750	2.8560e-04
14.000	19.000	4.8683e-04
14.000	19.250	5.9185e-04
14.000	19.500	6.4510e-04
14.000	19.750	7.4329e-04
14.000	20.000	9.0872e-04
14.000	20.250	1.1605e-03
14.000	20.500	1.5331e-03
14.000	20.750	2.0790e-03
14.000	21.000	2.8863e-03
14.000	21.250	4.0955e-03
14.000	21.500	5.8252e-03
14.000	21.750	8.4914e-03
14.000	22.000	1.1987e-02
14.000	22.250	1.5742e-02
14.000	22.500	1.9778e-02
14.000	22.750	2.5889e-02
14.000	23.000	3.6229e-02
14.000	23.250	4.9411e-02
14.000	23.500	5.9613e-02
14.000	23.750	6.7509e-02
14.000	24.000	7.5134e-02
