InwC 3645.00A  relative to Inci 1215.00A scaled to 1215A.
Hden   Phi(H)  Eq_Width (A)
 7.000	17.000	5.3571e-02
 7.000	17.250	7.1207e-02
 7.000	17.500	9.1359e-02
 7.000	17.750	9.4411e-02
 7.000	18.000	9.5841e-02
 7.000	18.250	9.5915e-02
 7.000	18.500	9.5914e-02
 7.000	18.750	9.5916e-02
 7.000	19.000	9.5927e-02
 7.000	19.250	9.5938e-02
 7.000	19.500	9.5941e-02
 7.000	19.750	9.5943e-02
 7.000	20.000	9.5944e-02
 7.000	20.250	9.5944e-02
 7.000	20.500	9.5944e-02
 7.000	20.750	9.5944e-02
 7.000	21.000	9.5944e-02
 7.000	21.250	9.5945e-02
 7.000	21.500	9.5945e-02
 7.000	21.750	9.5945e-02
 7.000	22.000	9.5945e-02
 7.000	22.250	9.5945e-02
 7.000	22.500	9.5946e-02
 7.000	22.750	9.5947e-02
 7.000	23.000	9.5947e-02
 7.000	23.250	9.5947e-02
 7.000	23.500	9.5947e-02
 7.000	23.750	9.5947e-02
 7.000	24.000	9.5948e-02
 7.250	17.000	3.8646e-02
 7.250	17.250	5.4893e-02
 7.250	17.500	7.1951e-02
 7.250	17.750	9.1320e-02
 7.250	18.000	9.4429e-02
 7.250	18.250	9.5840e-02
 7.250	18.500	9.5915e-02
 7.250	18.750	9.5915e-02
 7.250	19.000	9.5916e-02
 7.250	19.250	9.5928e-02
 7.250	19.500	9.5938e-02
 7.250	19.750	9.5941e-02
 7.250	20.000	9.5943e-02
 7.250	20.250	9.5944e-02
 7.250	20.500	9.5944e-02
 7.250	20.750	9.5944e-02
 7.250	21.000	9.5944e-02
 7.250	21.250	9.5944e-02
 7.250	21.500	9.5944e-02
 7.250	21.750	9.5945e-02
 7.250	22.000	9.5945e-02
 7.250	22.250	9.5944e-02
 7.250	22.500	9.5945e-02
 7.250	22.750	9.5945e-02
 7.250	23.000	9.5945e-02
 7.250	23.250	9.5954e-02
 7.250	23.500	9.5945e-02
 7.250	23.750	9.5945e-02
 7.250	24.000	9.5946e-02
 7.500	17.000	2.5888e-02
 7.500	17.250	3.9402e-02
 7.500	17.500	5.6032e-02
 7.500	17.750	7.2657e-02
 7.500	18.000	9.1249e-02
 7.500	18.250	9.4443e-02
 7.500	18.500	9.5839e-02
 7.500	18.750	9.5915e-02
 7.500	19.000	9.5914e-02
 7.500	19.250	9.5915e-02
 7.500	19.500	9.5927e-02
 7.500	19.750	9.5938e-02
 7.500	20.000	9.5941e-02
 7.500	20.250	9.5943e-02
 7.500	20.500	9.5944e-02
 7.500	20.750	9.5944e-02
 7.500	21.000	9.5944e-02
 7.500	21.250	9.5944e-02
 7.500	21.500	9.5944e-02
 7.500	21.750	9.5944e-02
 7.500	22.000	9.5944e-02
 7.500	22.250	9.5944e-02
 7.500	22.500	9.5944e-02
 7.500	22.750	9.5944e-02
 7.500	23.000	9.5944e-02
 7.500	23.250	9.5945e-02
 7.500	23.500	9.5945e-02
 7.500	23.750	9.5945e-02
 7.500	24.000	9.5945e-02
 7.750	17.000	1.7391e-02
 7.750	17.250	2.6315e-02
 7.750	17.500	4.0198e-02
 7.750	17.750	5.7284e-02
 7.750	18.000	7.3335e-02
 7.750	18.250	9.1123e-02
 7.750	18.500	9.4451e-02
 7.750	18.750	9.5837e-02
 7.750	19.000	9.5915e-02
 7.750	19.250	9.5916e-02
 7.750	19.500	9.5915e-02
 7.750	19.750	9.5927e-02
 7.750	20.000	9.5938e-02
 7.750	20.250	9.5941e-02
 7.750	20.500	9.5943e-02
 7.750	20.750	9.5943e-02
 7.750	21.000	9.5944e-02
 7.750	21.250	9.5944e-02
 7.750	21.500	9.5944e-02
 7.750	21.750	9.5944e-02
 7.750	22.000	9.5944e-02
 7.750	22.250	9.5944e-02
 7.750	22.500	9.5944e-02
 7.750	22.750	9.5944e-02
 7.750	23.000	9.5944e-02
 7.750	23.250	9.5944e-02
 7.750	23.500	9.5944e-02
 7.750	23.750	9.5944e-02
 7.750	24.000	9.5944e-02
 8.000	17.000	1.1961e-02
 8.000	17.250	1.7616e-02
 8.000	17.500	2.6764e-02
 8.000	17.750	4.1025e-02
 8.000	18.000	5.8449e-02
 8.000	18.250	7.3646e-02
 8.000	18.500	9.0892e-02
 8.000	18.750	9.4435e-02
 8.000	19.000	9.5833e-02
 8.000	19.250	9.5914e-02
 8.000	19.500	9.5915e-02
 8.000	19.750	9.5915e-02
 8.000	20.000	9.5927e-02
 8.000	20.250	9.5938e-02
 8.000	20.500	9.5941e-02
 8.000	20.750	9.5943e-02
 8.000	21.000	9.5943e-02
 8.000	21.250	9.5944e-02
 8.000	21.500	9.5944e-02
 8.000	21.750	9.5944e-02
 8.000	22.000	9.5944e-02
 8.000	22.250	9.5944e-02
 8.000	22.500	9.5944e-02
 8.000	22.750	9.5944e-02
 8.000	23.000	9.5944e-02
 8.000	23.250	9.5944e-02
 8.000	23.500	9.5944e-02
 8.000	23.750	9.5944e-02
 8.000	24.000	9.5945e-02
 8.250	17.000	8.5014e-03
 8.250	17.250	1.2163e-02
 8.250	17.500	1.8028e-02
 8.250	17.750	2.7563e-02
 8.250	18.000	4.2408e-02
 8.250	18.250	5.9607e-02
 8.250	18.500	7.4236e-02
 8.250	18.750	9.0551e-02
 8.250	19.000	9.4420e-02
 8.250	19.250	9.5827e-02
 8.250	19.500	9.5912e-02
 8.250	19.750	9.5914e-02
 8.250	20.000	9.5915e-02
 8.250	20.250	9.5928e-02
 8.250	20.500	9.5938e-02
 8.250	20.750	9.5941e-02
 8.250	21.000	9.5943e-02
 8.250	21.250	9.5944e-02
 8.250	21.500	9.5944e-02
 8.250	21.750	9.5944e-02
 8.250	22.000	9.5944e-02
 8.250	22.250	9.5944e-02
 8.250	22.500	9.5944e-02
 8.250	22.750	9.5944e-02
 8.250	23.000	9.5944e-02
 8.250	23.250	9.5945e-02
 8.250	23.500	9.5945e-02
 8.250	23.750	9.5944e-02
 8.250	24.000	9.5944e-02
 8.500	17.000	6.1686e-03
 8.500	17.250	8.6247e-03
 8.500	17.500	1.2438e-02
 8.500	17.750	1.8691e-02
 8.500	18.000	2.8875e-02
 8.500	18.250	4.4272e-02
 8.500	18.500	6.0344e-02
 8.500	18.750	7.4449e-02
 8.500	19.000	9.0043e-02
 8.500	19.250	9.4381e-02
 8.500	19.500	9.5815e-02
 8.500	19.750	9.5910e-02
 8.500	20.000	9.5913e-02
 8.500	20.250	9.5915e-02
 8.500	20.500	9.5927e-02
 8.500	20.750	9.5938e-02
 8.500	21.000	9.5941e-02
 8.500	21.250	9.5943e-02
 8.500	21.500	9.5944e-02
 8.500	21.750	9.5944e-02
 8.500	22.000	9.5944e-02
 8.500	22.250	9.5944e-02
 8.500	22.500	9.5944e-02
 8.500	22.750	9.5944e-02
 8.500	23.000	9.5944e-02
 8.500	23.250	9.5944e-02
 8.500	23.500	9.5944e-02
 8.500	23.750	9.5944e-02
 8.500	24.000	9.5944e-02
 8.750	17.000	4.5384e-03
 8.750	17.250	6.2342e-03
 8.750	17.500	8.7914e-03
 8.750	17.750	1.2853e-02
 8.750	18.000	1.9627e-02
 8.750	18.250	3.0608e-02
 8.750	18.500	4.5862e-02
 8.750	18.750	6.0484e-02
 8.750	19.000	7.4565e-02
 8.750	19.250	8.9394e-02
 8.750	19.500	9.4303e-02
 8.750	19.750	9.5796e-02
 8.750	20.000	9.5907e-02
 8.750	20.250	9.5913e-02
 8.750	20.500	9.5915e-02
 8.750	20.750	9.5927e-02
 8.750	21.000	9.5938e-02
 8.750	21.250	9.5941e-02
 8.750	21.500	9.5943e-02
 8.750	21.750	9.5944e-02
 8.750	22.000	9.5944e-02
 8.750	22.250	9.5944e-02
 8.750	22.500	9.5944e-02
 8.750	22.750	9.5944e-02
 8.750	23.000	9.5944e-02
 8.750	23.250	9.5944e-02
 8.750	23.500	9.5944e-02
 8.750	23.750	9.5944e-02
 8.750	24.000	9.5944e-02
 9.000	17.000	3.3802e-03
 9.000	17.250	4.5698e-03
 9.000	17.500	6.3273e-03
 9.000	17.750	9.0511e-03
 9.000	18.000	1.3516e-02
 9.000	18.250	2.0967e-02
 9.000	18.500	3.2264e-02
 9.000	18.750	4.6715e-02
 9.000	19.000	6.0265e-02
 9.000	19.250	7.5618e-02
 9.000	19.500	8.8649e-02
 9.000	19.750	9.4163e-02
 9.000	20.000	9.5766e-02
 9.000	20.250	9.5901e-02
 9.000	20.500	9.5912e-02
 9.000	20.750	9.5915e-02
 9.000	21.000	9.5927e-02
 9.000	21.250	9.5938e-02
 9.000	21.500	9.5941e-02
 9.000	21.750	9.5943e-02
 9.000	22.000	9.5943e-02
 9.000	22.250	9.5944e-02
 9.000	22.500	9.5944e-02
 9.000	22.750	9.5944e-02
 9.000	23.000	9.5944e-02
 9.000	23.250	9.5944e-02
 9.000	23.500	9.5944e-02
 9.000	23.750	9.5944e-02
 9.000	24.000	9.5944e-02
 9.250	17.000	2.5510e-03
 9.250	17.250	3.3881e-03
 9.250	17.500	4.6169e-03
 9.250	17.750	6.4937e-03
 9.250	18.000	9.5533e-03
 9.250	18.250	1.4639e-02
 9.250	18.500	2.2191e-02
 9.250	18.750	3.2929e-02
 9.250	19.000	4.6689e-02
 9.250	19.250	6.0727e-02
 9.250	19.500	7.6924e-02
 9.250	19.750	8.7931e-02
 9.250	20.000	9.3942e-02
 9.250	20.250	9.5717e-02
 9.250	20.500	9.5890e-02
 9.250	20.750	9.5911e-02
 9.250	21.000	9.5915e-02
 9.250	21.250	9.5927e-02
 9.250	21.500	9.5932e-02
 9.250	21.750	9.5884e-02
 9.250	22.000	9.5860e-02
 9.250	22.250	9.5886e-02
 9.250	22.500	9.5943e-02
 9.250	22.750	9.5944e-02
 9.250	23.000	9.5944e-02
 9.250	23.250	9.5944e-02
 9.250	23.500	9.5944e-02
 9.250	23.750	9.5944e-02
 9.250	24.000	9.5944e-02
 9.500	17.000	1.9581e-03
 9.500	17.250	2.5478e-03
 9.500	17.500	3.4072e-03
 9.500	17.750	4.7271e-03
 9.500	18.000	6.8973e-03
 9.500	18.250	1.0435e-02
 9.500	18.500	1.5372e-02
 9.500	18.750	2.2042e-02
 9.500	19.000	3.1578e-02
 9.500	19.250	4.5407e-02
 9.500	19.500	6.0980e-02
 9.500	19.750	7.8041e-02
 9.500	20.000	8.7251e-02
 9.500	20.250	9.3627e-02
 9.500	20.500	9.5639e-02
 9.500	20.750	9.5874e-02
 9.500	21.000	9.5903e-02
 9.500	21.250	9.5886e-02
 9.500	21.500	9.5849e-02
 9.500	21.750	9.5847e-02
 9.500	22.000	9.5829e-02
 9.500	22.250	9.5802e-02
 9.500	22.500	9.5787e-02
 9.500	22.750	9.5791e-02
 9.500	23.000	9.5793e-02
 9.500	23.250	9.5794e-02
 9.500	23.500	9.5851e-02
 9.500	23.750	9.5850e-02
 9.500	24.000	9.5851e-02
 9.750	17.000	1.5333e-03
 9.750	17.250	1.9482e-03
 9.750	17.500	2.5529e-03
 9.750	17.750	3.4863e-03
 9.750	18.000	5.0444e-03
 9.750	18.250	7.5077e-03
 9.750	18.500	1.0704e-02
 9.750	18.750	1.4731e-02
 9.750	19.000	2.0283e-02
 9.750	19.250	2.9256e-02
 9.750	19.500	4.3576e-02
 9.750	19.750	6.2308e-02
 9.750	20.000	7.7686e-02
 9.750	20.250	8.6688e-02
 9.750	20.500	9.3239e-02
 9.750	20.750	9.5519e-02
 9.750	21.000	9.5848e-02
 9.750	21.250	9.5906e-02
 9.750	21.500	9.5905e-02
 9.750	21.750	9.5879e-02
 9.750	22.000	9.5852e-02
 9.750	22.250	9.5843e-02
 9.750	22.500	9.5823e-02
 9.750	22.750	9.5804e-02
 9.750	23.000	9.5793e-02
 9.750	23.250	9.5787e-02
 9.750	23.500	9.5787e-02
 9.750	23.750	9.5799e-02
 9.750	24.000	9.5790e-02
10.000	17.000	1.2318e-03
10.000	17.250	1.5221e-03
10.000	17.500	1.9496e-03
10.000	17.750	2.6140e-03
10.000	18.000	3.7256e-03
10.000	18.250	5.3845e-03
10.000	18.500	7.4255e-03
10.000	18.750	9.8247e-03
10.000	19.000	1.2967e-02
10.000	19.250	1.7721e-02
10.000	19.500	2.5929e-02
10.000	19.750	4.1568e-02
10.000	20.000	6.2895e-02
10.000	20.250	7.6856e-02
10.000	20.500	8.5498e-02
10.000	20.750	9.2827e-02
10.000	21.000	9.5350e-02
10.000	21.250	9.5808e-02
10.000	21.500	9.5902e-02
10.000	21.750	9.5910e-02
10.000	22.000	9.5911e-02
10.000	22.250	9.5854e-02
10.000	22.500	9.5851e-02
10.000	22.750	9.5839e-02
10.000	23.000	9.5825e-02
10.000	23.250	9.5814e-02
10.000	23.500	9.5806e-02
10.000	23.750	9.5803e-02
10.000	24.000	9.5801e-02
10.250	17.000	1.0185e-03
10.250	17.250	1.2204e-03
10.250	17.500	1.5193e-03
10.250	17.750	1.9937e-03
10.250	18.000	2.7694e-03
10.250	18.250	3.8962e-03
10.250	18.500	5.1865e-03
10.250	18.750	6.6036e-03
10.250	19.000	8.3911e-03
10.250	19.250	1.1443e-02
10.250	19.500	1.7116e-02
10.250	19.750	2.7182e-02
10.250	20.000	4.4273e-02
10.250	20.250	6.4071e-02
10.250	20.500	7.5488e-02
10.250	20.750	8.4771e-02
10.250	21.000	9.2458e-02
10.250	21.250	9.5126e-02
10.250	21.500	9.5747e-02
10.250	21.750	9.5895e-02
10.250	22.000	9.5909e-02
10.250	22.250	9.5920e-02
10.250	22.500	9.5869e-02
10.250	22.750	9.5855e-02
10.250	23.000	9.5849e-02
10.250	23.250	9.5840e-02
10.250	23.500	9.5833e-02
10.250	23.750	9.5827e-02
10.250	24.000	9.5825e-02
10.500	17.000	8.6708e-04
10.500	17.250	1.0063e-03
10.500	17.500	1.2145e-03
10.500	17.750	1.5479e-03
10.500	18.000	2.0852e-03
10.500	18.250	2.8568e-03
10.500	18.500	3.7071e-03
10.500	18.750	4.7072e-03
10.500	19.000	6.1369e-03
10.500	19.250	8.4347e-03
10.500	19.500	1.2135e-02
10.500	19.750	1.8313e-02
10.500	20.000	2.8982e-02
10.500	20.250	4.6275e-02
10.500	20.500	6.3267e-02
10.500	20.750	7.4432e-02
10.500	21.000	8.3965e-02
10.500	21.250	9.1979e-02
10.500	21.500	9.4858e-02
10.500	21.750	9.5661e-02
10.500	22.000	9.5885e-02
10.500	22.250	9.5906e-02
10.500	22.500	9.5922e-02
10.500	22.750	9.5909e-02
10.500	23.000	9.5857e-02
10.500	23.250	9.5855e-02
10.500	23.500	9.5850e-02
10.500	23.750	9.5846e-02
10.500	24.000	9.5842e-02
10.750	17.000	7.5786e-04
10.750	17.250	8.5243e-04
10.750	17.500	9.9473e-04
10.750	17.750	1.2248e-03
10.750	18.000	1.6022e-03
10.750	18.250	2.1458e-03
10.750	18.500	2.7839e-03
10.750	18.750	3.5821e-03
10.750	19.000	4.7371e-03
10.750	19.250	6.4218e-03
10.750	19.500	8.9230e-03
10.750	19.750	1.2780e-02
10.750	20.000	1.9141e-02
10.750	20.250	2.9963e-02
10.750	20.500	4.6922e-02
10.750	20.750	6.2055e-02
10.750	21.000	7.3276e-02
10.750	21.250	8.3390e-02
10.750	21.500	9.1802e-02
10.750	21.750	9.4576e-02
10.750	22.000	9.5546e-02
10.750	22.250	9.5866e-02
10.750	22.500	9.5900e-02
10.750	22.750	9.5921e-02
10.750	23.000	9.5928e-02
10.750	23.250	9.5870e-02
10.750	23.500	9.5858e-02
10.750	23.750	9.5855e-02
10.750	24.000	9.5853e-02
11.000	17.000	6.7481e-04
11.000	17.250	7.3975e-04
11.000	17.500	8.3391e-04
11.000	17.750	9.9177e-04
11.000	18.000	1.2573e-03
11.000	18.250	1.6524e-03
11.000	18.500	2.1699e-03
11.000	18.750	2.8262e-03
11.000	19.000	3.7397e-03
11.000	19.250	4.9907e-03
11.000	19.500	6.7270e-03
11.000	19.750	9.2241e-03
11.000	20.000	1.3061e-02
11.000	20.250	1.9393e-02
11.000	20.500	3.0120e-02
11.000	20.750	4.6396e-02
11.000	21.000	6.0408e-02
11.000	21.250	7.2230e-02
11.000	21.500	8.2854e-02
11.000	21.750	9.1398e-02
11.000	22.000	9.4233e-02
11.000	22.250	9.5431e-02
11.000	22.500	9.5844e-02
11.000	22.750	9.5891e-02
11.000	23.000	9.5917e-02
11.000	23.250	9.5933e-02
11.000	23.500	9.5911e-02
11.000	23.750	9.5863e-02
11.000	24.000	9.5858e-02
11.250	17.000	6.1416e-04
11.250	17.250	6.5358e-04
11.250	17.500	7.1498e-04
11.250	17.750	8.2132e-04
11.250	18.000	1.0080e-03
11.250	18.250	1.3010e-03
11.250	18.500	1.7001e-03
11.250	18.750	2.2512e-03
11.250	19.000	2.9761e-03
11.250	19.250	3.9214e-03
11.250	19.500	5.1735e-03
11.250	19.750	6.8704e-03
11.250	20.000	9.2914e-03
11.250	20.250	1.3031e-02
11.250	20.500	1.9254e-02
11.250	20.750	2.9809e-02
11.250	21.000	4.4129e-02
11.250	21.250	5.9429e-02
11.250	21.500	7.1437e-02
11.250	21.750	8.2606e-02
11.250	22.000	9.1033e-02
11.250	22.250	9.3956e-02
11.250	22.500	9.5301e-02
11.250	22.750	9.5813e-02
11.250	23.000	9.5878e-02
11.250	23.250	9.5912e-02
11.250	23.500	9.5934e-02
11.250	23.750	9.5931e-02
11.250	24.000	9.5891e-02
11.500	17.000	5.7210e-04
11.500	17.250	5.9111e-04
11.500	17.500	6.2667e-04
11.500	17.750	6.9514e-04
11.500	18.000	8.2560e-04
11.500	18.250	1.0463e-03
11.500	18.500	1.3615e-03
11.500	18.750	1.7999e-03
11.500	19.000	2.3808e-03
11.500	19.250	3.1065e-03
11.500	19.500	4.0402e-03
11.500	19.750	5.2586e-03
11.500	20.000	6.8864e-03
11.500	20.250	9.1982e-03
11.500	20.500	1.2811e-02
11.500	20.750	1.8918e-02
11.500	21.000	2.9348e-02
11.500	21.250	4.2994e-02
11.500	21.500	5.8813e-02
11.500	21.750	7.1374e-02
11.500	22.000	8.2673e-02
11.500	22.250	9.0421e-02
11.500	22.500	9.3610e-02
11.500	22.750	9.5177e-02
11.500	23.000	9.5777e-02
11.500	23.250	9.5862e-02
11.500	23.500	9.5905e-02
11.500	23.750	9.5934e-02
11.500	24.000	9.5937e-02
11.750	17.000	5.4444e-04
11.750	17.250	5.4823e-04
11.750	17.500	5.6354e-04
11.750	17.750	6.0436e-04
11.750	18.000	6.9473e-04
11.750	18.250	8.5844e-04
11.750	18.500	1.1030e-03
11.750	18.750	1.4572e-03
11.750	19.000	1.9052e-03
11.750	19.250	2.4755e-03
11.750	19.500	3.1925e-03
11.750	19.750	4.1005e-03
11.750	20.000	5.2742e-03
11.750	20.250	6.8150e-03
11.750	20.500	9.0282e-03
11.750	20.750	1.2538e-02
11.750	21.000	1.8601e-02
11.750	21.250	2.9060e-02
11.750	21.500	4.2398e-02
11.750	21.750	5.8929e-02
11.750	22.000	7.1677e-02
11.750	22.250	8.2844e-02
11.750	22.500	8.9872e-02
11.750	22.750	9.3271e-02
11.750	23.000	9.5052e-02
11.750	23.250	9.5741e-02
11.750	23.500	9.5843e-02
11.750	23.750	9.5897e-02
11.750	24.000	9.5932e-02
12.000	17.000	5.1613e-04
12.000	17.250	5.2132e-04
12.000	17.500	5.2181e-04
12.000	17.750	5.4140e-04
12.000	18.000	6.0049e-04
12.000	18.250	7.1934e-04
12.000	18.500	9.0881e-04
12.000	18.750	1.1769e-03
12.000	19.000	1.5321e-03
12.000	19.250	1.9817e-03
12.000	19.500	2.5463e-03
12.000	19.750	3.2499e-03
12.000	20.000	4.1288e-03
12.000	20.250	5.2444e-03
12.000	20.500	6.7156e-03
12.000	20.750	8.8430e-03
12.000	21.000	1.2309e-02
12.000	21.250	1.8454e-02
12.000	21.500	2.8623e-02
12.000	21.750	4.2792e-02
12.000	22.000	5.9564e-02
12.000	22.250	7.2339e-02
12.000	22.500	8.2987e-02
12.000	22.750	8.9422e-02
12.000	23.000	9.3028e-02
12.000	23.250	9.4910e-02
12.000	23.500	9.5706e-02
12.000	23.750	9.5823e-02
12.000	24.000	9.5889e-02
12.250	17.000	2.9877e-04
12.250	17.250	5.0551e-04
12.250	17.500	4.9827e-04
12.250	17.750	5.0288e-04
12.250	18.000	5.3770e-04
12.250	18.250	6.2123e-04
12.250	18.500	7.6263e-04
12.250	18.750	9.6477e-04
12.250	19.000	1.2363e-03
12.250	19.250	1.5951e-03
12.250	19.500	2.0421e-03
12.250	19.750	2.5972e-03
12.250	20.000	3.2761e-03
12.250	20.250	4.1267e-03
12.250	20.500	5.1923e-03
12.250	20.750	6.5966e-03
12.250	21.000	8.6886e-03
12.250	21.250	1.2209e-02
12.250	21.500	1.8203e-02
12.250	21.750	2.8952e-02
12.250	22.000	4.3792e-02
12.250	22.250	6.0633e-02
12.250	22.500	7.2994e-02
12.250	22.750	8.3055e-02
12.250	23.000	8.9180e-02
12.250	23.250	9.2755e-02
12.250	23.500	9.4768e-02
12.250	23.750	9.5664e-02
12.250	24.000	9.5802e-02
12.500	17.000	1.3778e-04
12.500	17.250	3.2881e-04
12.500	17.500	4.8815e-04
12.500	17.750	4.8593e-04
12.500	18.000	5.0346e-04
12.500	18.250	5.5753e-04
12.500	18.500	6.5556e-04
12.500	18.750	8.0453e-04
12.500	19.000	1.0096e-03
12.500	19.250	1.2868e-03
12.500	19.500	1.6390e-03
12.500	19.750	2.0791e-03
12.500	20.000	2.6215e-03
12.500	20.250	3.2833e-03
12.500	20.500	4.0940e-03
12.500	20.750	5.1197e-03
12.500	21.000	6.4899e-03
12.500	21.250	8.5926e-03
12.500	21.500	1.2062e-02
12.500	21.750	1.8494e-02
12.500	22.000	2.9708e-02
12.500	22.250	4.5614e-02
12.500	22.500	6.2291e-02
12.500	22.750	7.3770e-02
12.500	23.000	8.3143e-02
12.500	23.250	8.8934e-02
12.500	23.500	9.2497e-02
12.500	23.750	9.4616e-02
12.500	24.000	9.5618e-02
12.750	17.000	7.4979e-05
12.750	17.250	1.6148e-04
12.750	17.500	3.4247e-04
12.750	17.750	4.8107e-04
12.750	18.000	4.8872e-04
12.750	18.250	5.1827e-04
12.750	18.500	5.8181e-04
12.750	18.750	6.8453e-04
12.750	19.000	8.3621e-04
12.750	19.250	1.0433e-03
12.750	19.500	1.3155e-03
12.750	19.750	1.6618e-03
12.750	20.000	2.0926e-03
12.750	20.250	2.6188e-03
12.750	20.500	3.2546e-03
12.750	20.750	4.0297e-03
12.750	21.000	5.0056e-03
12.750	21.250	6.3579e-03
12.750	21.500	8.4184e-03
12.750	21.750	1.2181e-02
12.750	22.000	1.9081e-02
12.750	22.250	3.0511e-02
12.750	22.500	4.7720e-02
12.750	22.750	6.2773e-02
12.750	23.000	7.4335e-02
12.750	23.250	8.3205e-02
12.750	23.500	8.8791e-02
12.750	23.750	9.2267e-02
12.750	24.000	9.4444e-02
13.000	17.000	1.3580e-05
13.000	17.250	3.2099e-05
13.000	17.500	1.1737e-04
13.000	17.750	2.7226e-04
13.000	18.000	3.9605e-04
13.000	18.250	4.4593e-04
13.000	18.500	5.3457e-04
13.000	18.750	5.9918e-04
13.000	19.000	7.0453e-04
13.000	19.250	8.5687e-04
13.000	19.500	1.0650e-03
13.000	19.750	1.3315e-03
13.000	20.000	1.6681e-03
13.000	20.250	2.0829e-03
13.000	20.500	2.5849e-03
13.000	20.750	3.1860e-03
13.000	21.000	3.9081e-03
13.000	21.250	4.8291e-03
13.000	21.500	6.1049e-03
13.000	21.750	8.3438e-03
13.000	22.000	1.2462e-02
13.000	22.250	1.9971e-02
13.000	22.500	3.2317e-02
13.000	22.750	4.8688e-02
13.000	23.000	6.3109e-02
13.000	23.250	7.4693e-02
13.000	23.500	8.3171e-02
13.000	23.750	8.8585e-02
13.000	24.000	9.1978e-02
13.250	17.000	8.1481e-06
13.250	17.250	1.5473e-05
13.250	17.500	3.7613e-05
13.250	17.750	9.0453e-05
13.250	18.000	2.2033e-04
13.250	18.250	3.6798e-04
13.250	18.500	4.3193e-04
13.250	18.750	5.4765e-04
13.250	19.000	6.1218e-04
13.250	19.250	7.1745e-04
13.250	19.500	8.7045e-04
13.250	19.750	1.0721e-03
13.250	20.000	1.3302e-03
13.250	20.250	1.6528e-03
13.250	20.500	2.0437e-03
13.250	20.750	2.5054e-03
13.250	21.000	3.0447e-03
13.250	21.250	3.6859e-03
13.250	21.500	4.4992e-03
13.250	21.750	5.7713e-03
13.250	22.000	8.3051e-03
13.250	22.250	1.2715e-02
13.250	22.500	2.0477e-02
13.250	22.750	3.2847e-02
13.250	23.000	4.8541e-02
13.250	23.250	6.3109e-02
13.250	23.500	7.4745e-02
13.250	23.750	8.2937e-02
13.250	24.000	8.8237e-02
13.500	17.000	4.9383e-06
13.500	17.250	9.5473e-06
13.500	17.500	2.0741e-05
13.500	17.750	4.7407e-05
13.500	18.000	1.1086e-04
13.500	18.250	2.5317e-04
13.500	18.500	3.8741e-04
13.500	18.750	4.6757e-04
13.500	19.000	5.5597e-04
13.500	19.250	6.2058e-04
13.500	19.500	7.2519e-04
13.500	19.750	8.7160e-04
13.500	20.000	1.0660e-03
13.500	20.250	1.3110e-03
13.500	20.500	1.6104e-03
13.500	20.750	1.9592e-03
13.500	21.000	2.3531e-03
13.500	21.250	2.7872e-03
13.500	21.500	3.2863e-03
13.500	21.750	4.0063e-03
13.500	22.000	5.3410e-03
13.500	22.250	8.0449e-03
13.500	22.500	1.2902e-02
13.500	22.750	2.0969e-02
13.500	23.000	3.3564e-02
13.500	23.250	4.8482e-02
13.500	23.500	6.2743e-02
13.500	23.750	7.4353e-02
13.500	24.000	8.2337e-02
13.750	17.000	2.9630e-06
13.750	17.250	5.8436e-06
13.750	17.500	1.2593e-05
13.750	17.750	2.5103e-05
13.750	18.000	6.1317e-05
13.750	18.250	1.3243e-04
13.750	18.500	2.6305e-04
13.750	18.750	4.0230e-04
13.750	19.000	4.9704e-04
13.750	19.250	5.6058e-04
13.750	19.500	6.2362e-04
13.750	19.750	7.2436e-04
13.750	20.000	8.6477e-04
13.750	20.250	1.0467e-03
13.750	20.500	1.2698e-03
13.750	20.750	1.5302e-03
13.750	21.000	1.8150e-03
13.750	21.250	2.1047e-03
13.750	21.500	2.4051e-03
13.750	21.750	2.7787e-03
13.750	22.000	3.4995e-03
13.750	22.250	5.0352e-03
13.750	22.500	7.9781e-03
13.750	22.750	1.3083e-02
13.750	23.000	2.1267e-02
13.750	23.250	3.3680e-02
13.750	23.500	4.8147e-02
13.750	23.750	6.1567e-02
13.750	24.000	7.3314e-02
14.000	17.000	1.7284e-06
14.000	17.250	3.5391e-06
14.000	17.500	7.8189e-06
14.000	17.750	1.5391e-05
14.000	18.000	3.1605e-05
14.000	18.250	7.3004e-05
14.000	18.500	1.4823e-04
14.000	18.750	2.7128e-04
14.000	19.000	4.4683e-04
14.000	19.250	5.2831e-04
14.000	19.500	5.6091e-04
14.000	19.750	6.2099e-04
14.000	20.000	7.1621e-04
14.000	20.250	8.4584e-04
14.000	20.500	1.0086e-03
14.000	20.750	1.1977e-03
14.000	21.000	1.3998e-03
14.000	21.250	1.5896e-03
14.000	21.500	1.7602e-03
14.000	21.750	1.9291e-03
14.000	22.000	2.2844e-03
14.000	22.250	3.1398e-03
14.000	22.500	4.8881e-03
14.000	22.750	8.1159e-03
14.000	23.000	1.3351e-02
14.000	23.250	2.1428e-02
14.000	23.500	3.3283e-02
14.000	23.750	4.6482e-02
14.000	24.000	5.9197e-02
