InwT 1064.34A  relative to Inci 1215.00A scaled to 1215A.
Hden   Phi(H)  Eq_Width (A)
 7.000	17.000	2.4961e-02
 7.000	17.250	2.2729e-02
 7.000	17.500	2.0368e-02
 7.000	17.750	1.8160e-02
 7.000	18.000	1.6498e-02
 7.000	18.250	1.5481e-02
 7.000	18.500	1.4842e-02
 7.000	18.750	1.4526e-02
 7.000	19.000	1.4360e-02
 7.000	19.250	1.4266e-02
 7.000	19.500	1.4226e-02
 7.000	19.750	1.4209e-02
 7.000	20.000	1.4201e-02
 7.000	20.250	1.4198e-02
 7.000	20.500	1.4196e-02
 7.000	20.750	1.4196e-02
 7.000	21.000	1.4195e-02
 7.000	21.250	1.4195e-02
 7.000	21.500	1.4195e-02
 7.000	21.750	1.4195e-02
 7.000	22.000	1.4194e-02
 7.000	22.250	1.4195e-02
 7.000	22.500	1.4194e-02
 7.000	22.750	1.4196e-02
 7.000	23.000	1.4196e-02
 7.000	23.250	1.4195e-02
 7.000	23.500	1.4196e-02
 7.000	23.750	1.4196e-02
 7.000	24.000	1.4196e-02
 7.250	17.000	2.5361e-02
 7.250	17.250	2.4749e-02
 7.250	17.500	2.2620e-02
 7.250	17.750	2.0318e-02
 7.250	18.000	1.8132e-02
 7.250	18.250	1.6482e-02
 7.250	18.500	1.5474e-02
 7.250	18.750	1.4839e-02
 7.250	19.000	1.4525e-02
 7.250	19.250	1.4360e-02
 7.250	19.500	1.4266e-02
 7.250	19.750	1.4226e-02
 7.250	20.000	1.4209e-02
 7.250	20.250	1.4201e-02
 7.250	20.500	1.4198e-02
 7.250	20.750	1.4196e-02
 7.250	21.000	1.4195e-02
 7.250	21.250	1.4195e-02
 7.250	21.500	1.4195e-02
 7.250	21.750	1.4195e-02
 7.250	22.000	1.4195e-02
 7.250	22.250	1.4194e-02
 7.250	22.500	1.4194e-02
 7.250	22.750	1.4194e-02
 7.250	23.000	1.4194e-02
 7.250	23.250	1.4194e-02
 7.250	23.500	1.4194e-02
 7.250	23.750	1.4194e-02
 7.250	24.000	1.4194e-02
 7.500	17.000	2.6826e-02
 7.500	17.250	2.4625e-02
 7.500	17.500	2.4629e-02
 7.500	17.750	2.2559e-02
 7.500	18.000	2.0293e-02
 7.500	18.250	1.8117e-02
 7.500	18.500	1.6473e-02
 7.500	18.750	1.5469e-02
 7.500	19.000	1.4838e-02
 7.500	19.250	1.4525e-02
 7.500	19.500	1.4359e-02
 7.500	19.750	1.4266e-02
 7.500	20.000	1.4226e-02
 7.500	20.250	1.4209e-02
 7.500	20.500	1.4201e-02
 7.500	20.750	1.4198e-02
 7.500	21.000	1.4196e-02
 7.500	21.250	1.4195e-02
 7.500	21.500	1.4195e-02
 7.500	21.750	1.4195e-02
 7.500	22.000	1.4194e-02
 7.500	22.250	1.4194e-02
 7.500	22.500	1.4194e-02
 7.500	22.750	1.4194e-02
 7.500	23.000	1.4194e-02
 7.500	23.250	1.4194e-02
 7.500	23.500	1.4196e-02
 7.500	23.750	1.4194e-02
 7.500	24.000	1.4194e-02
 7.750	17.000	2.3593e-02
 7.750	17.250	2.5145e-02
 7.750	17.500	2.4041e-02
 7.750	17.750	2.4560e-02
 7.750	18.000	2.2528e-02
 7.750	18.250	2.0286e-02
 7.750	18.500	1.8110e-02
 7.750	18.750	1.6468e-02
 7.750	19.000	1.5466e-02
 7.750	19.250	1.4837e-02
 7.750	19.500	1.4524e-02
 7.750	19.750	1.4359e-02
 7.750	20.000	1.4266e-02
 7.750	20.250	1.4226e-02
 7.750	20.500	1.4209e-02
 7.750	20.750	1.4201e-02
 7.750	21.000	1.4198e-02
 7.750	21.250	1.4196e-02
 7.750	21.500	1.4195e-02
 7.750	21.750	1.4195e-02
 7.750	22.000	1.4195e-02
 7.750	22.250	1.4194e-02
 7.750	22.500	1.4194e-02
 7.750	22.750	1.4194e-02
 7.750	23.000	1.4194e-02
 7.750	23.250	1.4194e-02
 7.750	23.500	1.4195e-02
 7.750	23.750	1.4195e-02
 7.750	24.000	1.4194e-02
 8.000	17.000	1.8817e-02
 8.000	17.250	2.1677e-02
 8.000	17.500	2.3728e-02
 8.000	17.750	2.3532e-02
 8.000	18.000	2.4523e-02
 8.000	18.250	2.2513e-02
 8.000	18.500	2.0291e-02
 8.000	18.750	1.8108e-02
 8.000	19.000	1.6465e-02
 8.000	19.250	1.5464e-02
 8.000	19.500	1.4836e-02
 8.000	19.750	1.4524e-02
 8.000	20.000	1.4359e-02
 8.000	20.250	1.4266e-02
 8.000	20.500	1.4226e-02
 8.000	20.750	1.4209e-02
 8.000	21.000	1.4201e-02
 8.000	21.250	1.4198e-02
 8.000	21.500	1.4196e-02
 8.000	21.750	1.4195e-02
 8.000	22.000	1.4195e-02
 8.000	22.250	1.4194e-02
 8.000	22.500	1.4194e-02
 8.000	22.750	1.4194e-02
 8.000	23.000	1.4194e-02
 8.000	23.250	1.4194e-02
 8.000	23.500	1.4194e-02
 8.000	23.750	1.4194e-02
 8.000	24.000	1.4194e-02
 8.250	17.000	1.5142e-02
 8.250	17.250	1.7222e-02
 8.250	17.500	2.0391e-02
 8.250	17.750	2.2797e-02
 8.250	18.000	2.3206e-02
 8.250	18.250	2.4493e-02
 8.250	18.500	2.2509e-02
 8.250	18.750	2.0302e-02
 8.250	19.000	1.8110e-02
 8.250	19.250	1.6463e-02
 8.250	19.500	1.5463e-02
 8.250	19.750	1.4835e-02
 8.250	20.000	1.4524e-02
 8.250	20.250	1.4359e-02
 8.250	20.500	1.4266e-02
 8.250	20.750	1.4226e-02
 8.250	21.000	1.4209e-02
 8.250	21.250	1.4201e-02
 8.250	21.500	1.4198e-02
 8.250	21.750	1.4196e-02
 8.250	22.000	1.4195e-02
 8.250	22.250	1.4195e-02
 8.250	22.500	1.4194e-02
 8.250	22.750	1.4195e-02
 8.250	23.000	1.4194e-02
 8.250	23.250	1.4194e-02
 8.250	23.500	1.4195e-02
 8.250	23.750	1.4194e-02
 8.250	24.000	1.4194e-02
 8.500	17.000	1.2646e-02
 8.500	17.250	1.3846e-02
 8.500	17.500	1.6153e-02
 8.500	17.750	1.9579e-02
 8.500	18.000	2.2188e-02
 8.500	18.250	2.2962e-02
 8.500	18.500	2.4467e-02
 8.500	18.750	2.2510e-02
 8.500	19.000	2.0319e-02
 8.500	19.250	1.8113e-02
 8.500	19.500	1.6462e-02
 8.500	19.750	1.5463e-02
 8.500	20.000	1.4835e-02
 8.500	20.250	1.4524e-02
 8.500	20.500	1.4359e-02
 8.500	20.750	1.4266e-02
 8.500	21.000	1.4226e-02
 8.500	21.250	1.4209e-02
 8.500	21.500	1.4201e-02
 8.500	21.750	1.4198e-02
 8.500	22.000	1.4196e-02
 8.500	22.250	1.4195e-02
 8.500	22.500	1.4195e-02
 8.500	22.750	1.4194e-02
 8.500	23.000	1.4194e-02
 8.500	23.250	1.4194e-02
 8.500	23.500	1.4194e-02
 8.500	23.750	1.4194e-02
 8.500	24.000	1.4194e-02
 8.750	17.000	1.1104e-02
 8.750	17.250	1.1669e-02
 8.750	17.500	1.3027e-02
 8.750	17.750	1.5463e-02
 8.750	18.000	1.9079e-02
 8.750	18.250	2.1791e-02
 8.750	18.500	2.2822e-02
 8.750	18.750	2.4439e-02
 8.750	19.000	2.2514e-02
 8.750	19.250	2.0338e-02
 8.750	19.500	1.8118e-02
 8.750	19.750	1.6462e-02
 8.750	20.000	1.5462e-02
 8.750	20.250	1.4835e-02
 8.750	20.500	1.4524e-02
 8.750	20.750	1.4359e-02
 8.750	21.000	1.4266e-02
 8.750	21.250	1.4226e-02
 8.750	21.500	1.4209e-02
 8.750	21.750	1.4201e-02
 8.750	22.000	1.4198e-02
 8.750	22.250	1.4196e-02
 8.750	22.500	1.4195e-02
 8.750	22.750	1.4195e-02
 8.750	23.000	1.4194e-02
 8.750	23.250	1.4194e-02
 8.750	23.500	1.4194e-02
 8.750	23.750	1.4194e-02
 8.750	24.000	1.4194e-02
 9.000	17.000	1.0233e-02
 9.000	17.250	1.0387e-02
 9.000	17.500	1.1080e-02
 9.000	17.750	1.2541e-02
 9.000	18.000	1.5117e-02
 9.000	18.250	1.8862e-02
 9.000	18.500	2.1523e-02
 9.000	18.750	2.2723e-02
 9.000	19.000	2.4408e-02
 9.000	19.250	2.2515e-02
 9.000	19.500	2.0359e-02
 9.000	19.750	1.8124e-02
 9.000	20.000	1.6462e-02
 9.000	20.250	1.5462e-02
 9.000	20.500	1.4835e-02
 9.000	20.750	1.4524e-02
 9.000	21.000	1.4359e-02
 9.000	21.250	1.4266e-02
 9.000	21.500	1.4226e-02
 9.000	21.750	1.4209e-02
 9.000	22.000	1.4201e-02
 9.000	22.250	1.4198e-02
 9.000	22.500	1.4196e-02
 9.000	22.750	1.4195e-02
 9.000	23.000	1.4195e-02
 9.000	23.250	1.4194e-02
 9.000	23.500	1.4194e-02
 9.000	23.750	1.4194e-02
 9.000	24.000	1.4194e-02
 9.250	17.000	9.8328e-03
 9.250	17.250	9.6993e-03
 9.250	17.500	9.9796e-03
 9.250	17.750	1.0796e-02
 9.250	18.000	1.2428e-02
 9.250	18.250	1.5168e-02
 9.250	18.500	1.9001e-02
 9.250	18.750	2.1231e-02
 9.250	19.000	2.2640e-02
 9.250	19.250	2.4368e-02
 9.250	19.500	2.2511e-02
 9.250	19.750	2.0378e-02
 9.250	20.000	1.8129e-02
 9.250	20.250	1.6462e-02
 9.250	20.500	1.5462e-02
 9.250	20.750	1.4835e-02
 9.250	21.000	1.4524e-02
 9.250	21.250	1.4359e-02
 9.250	21.500	1.4264e-02
 9.250	21.750	1.4224e-02
 9.250	22.000	1.4207e-02
 9.250	22.250	1.4200e-02
 9.250	22.500	1.4197e-02
 9.250	22.750	1.4196e-02
 9.250	23.000	1.4195e-02
 9.250	23.250	1.4195e-02
 9.250	23.500	1.4194e-02
 9.250	23.750	1.4194e-02
 9.250	24.000	1.4194e-02
 9.500	17.000	9.7829e-03
 9.500	17.250	9.4147e-03
 9.500	17.500	9.4314e-03
 9.500	17.750	9.8868e-03
 9.500	18.000	1.0883e-02
 9.500	18.250	1.2705e-02
 9.500	18.500	1.5706e-02
 9.500	18.750	1.9484e-02
 9.500	19.000	2.1083e-02
 9.500	19.250	2.2562e-02
 9.500	19.500	2.4327e-02
 9.500	19.750	2.2499e-02
 9.500	20.000	2.0391e-02
 9.500	20.250	1.8134e-02
 9.500	20.500	1.6463e-02
 9.500	20.750	1.5461e-02
 9.500	21.000	1.4833e-02
 9.500	21.250	1.4522e-02
 9.500	21.500	1.4357e-02
 9.500	21.750	1.4263e-02
 9.500	22.000	1.4223e-02
 9.500	22.250	1.4206e-02
 9.500	22.500	1.4199e-02
 9.500	22.750	1.4195e-02
 9.500	23.000	1.4194e-02
 9.500	23.250	1.4193e-02
 9.500	23.500	1.4192e-02
 9.500	23.750	1.4192e-02
 9.500	24.000	1.4192e-02
 9.750	17.000	1.0032e-02
 9.750	17.250	9.4186e-03
 9.750	17.500	9.2221e-03
 9.750	17.750	9.4538e-03
 9.750	18.000	1.0150e-02
 9.750	18.250	1.1407e-02
 9.750	18.500	1.3525e-02
 9.750	18.750	1.6729e-02
 9.750	19.000	1.9939e-02
 9.750	19.250	2.0921e-02
 9.750	19.500	2.2471e-02
 9.750	19.750	2.4282e-02
 9.750	20.000	2.2480e-02
 9.750	20.250	2.0399e-02
 9.750	20.500	1.8138e-02
 9.750	20.750	1.6463e-02
 9.750	21.000	1.5461e-02
 9.750	21.250	1.4833e-02
 9.750	21.500	1.4522e-02
 9.750	21.750	1.4358e-02
 9.750	22.000	1.4264e-02
 9.750	22.250	1.4223e-02
 9.750	22.500	1.4206e-02
 9.750	22.750	1.4199e-02
 9.750	23.000	1.4196e-02
 9.750	23.250	1.4194e-02
 9.750	23.500	1.4193e-02
 9.750	23.750	1.4192e-02
 9.750	24.000	1.4192e-02
10.000	17.000	1.0574e-02
10.000	17.250	9.6811e-03
10.000	17.500	9.2382e-03
10.000	17.750	9.3108e-03
10.000	18.000	9.9057e-03
10.000	18.250	1.0883e-02
10.000	18.500	1.2402e-02
10.000	18.750	1.4731e-02
10.000	19.000	1.7949e-02
10.000	19.250	1.9970e-02
10.000	19.500	2.0819e-02
10.000	19.750	2.2399e-02
10.000	20.000	2.4253e-02
10.000	20.250	2.2458e-02
10.000	20.500	2.0401e-02
10.000	20.750	1.8140e-02
10.000	21.000	1.6463e-02
10.000	21.250	1.5461e-02
10.000	21.500	1.4833e-02
10.000	21.750	1.4522e-02
10.000	22.000	1.4358e-02
10.000	22.250	1.4264e-02
10.000	22.500	1.4223e-02
10.000	22.750	1.4207e-02
10.000	23.000	1.4199e-02
10.000	23.250	1.4195e-02
10.000	23.500	1.4194e-02
10.000	23.750	1.4193e-02
10.000	24.000	1.4192e-02
10.250	17.000	1.1454e-02
10.250	17.250	1.0238e-02
10.250	17.500	9.5389e-03
10.250	17.750	9.4484e-03
10.250	18.000	9.9760e-03
10.250	18.250	1.0831e-02
10.250	18.500	1.2016e-02
10.250	18.750	1.3759e-02
10.250	19.000	1.6294e-02
10.250	19.250	1.8916e-02
10.250	19.500	1.9883e-02
10.250	19.750	2.0796e-02
10.250	20.000	2.2345e-02
10.250	20.250	2.4239e-02
10.250	20.500	2.2434e-02
10.250	20.750	2.0399e-02
10.250	21.000	1.8142e-02
10.250	21.250	1.6463e-02
10.250	21.500	1.5461e-02
10.250	21.750	1.4834e-02
10.250	22.000	1.4522e-02
10.250	22.250	1.4358e-02
10.250	22.500	1.4264e-02
10.250	22.750	1.4224e-02
10.250	23.000	1.4206e-02
10.250	23.250	1.4199e-02
10.250	23.500	1.4196e-02
10.250	23.750	1.4194e-02
10.250	24.000	1.4193e-02
10.500	17.000	1.2645e-02
10.500	17.250	1.1147e-02
10.500	17.500	1.0175e-02
10.500	17.750	9.9272e-03
10.500	18.000	1.0345e-02
10.500	18.250	1.1113e-02
10.500	18.500	1.2037e-02
10.500	18.750	1.3221e-02
10.500	19.000	1.4842e-02
10.500	19.250	1.7180e-02
10.500	19.500	1.9162e-02
10.500	19.750	1.9976e-02
10.500	20.000	2.0933e-02
10.500	20.250	2.2421e-02
10.500	20.500	2.4313e-02
10.500	20.750	2.2419e-02
10.500	21.000	2.0392e-02
10.500	21.250	1.8143e-02
10.500	21.500	1.6463e-02
10.500	21.750	1.5461e-02
10.500	22.000	1.4834e-02
10.500	22.250	1.4523e-02
10.500	22.500	1.4358e-02
10.500	22.750	1.4264e-02
10.500	23.000	1.4224e-02
10.500	23.250	1.4207e-02
10.500	23.500	1.4199e-02
10.500	23.750	1.4196e-02
10.500	24.000	1.4194e-02
10.750	17.000	1.4096e-02
10.750	17.250	1.2380e-02
10.750	17.500	1.1213e-02
10.750	17.750	1.0813e-02
10.750	18.000	1.1039e-02
10.750	18.250	1.1531e-02
10.750	18.500	1.2128e-02
10.750	18.750	1.2802e-02
10.750	19.000	1.3815e-02
10.750	19.250	1.5521e-02
10.750	19.500	1.7904e-02
10.750	19.750	1.9298e-02
10.750	20.000	2.0183e-02
10.750	20.250	2.1377e-02
10.750	20.500	2.2723e-02
10.750	20.750	2.4501e-02
10.750	21.000	2.2428e-02
10.750	21.250	2.0383e-02
10.750	21.500	1.8142e-02
10.750	21.750	1.6463e-02
10.750	22.000	1.5461e-02
10.750	22.250	1.4834e-02
10.750	22.500	1.4523e-02
10.750	22.750	1.4358e-02
10.750	23.000	1.4264e-02
10.750	23.250	1.4224e-02
10.750	23.500	1.4207e-02
10.750	23.750	1.4199e-02
10.750	24.000	1.4196e-02
11.000	17.000	1.5771e-02
11.000	17.250	1.3887e-02
11.000	17.500	1.2609e-02
11.000	17.750	1.2101e-02
11.000	18.000	1.2065e-02
11.000	18.250	1.2144e-02
11.000	18.500	1.2314e-02
11.000	18.750	1.2619e-02
11.000	19.000	1.3189e-02
11.000	19.250	1.4287e-02
11.000	19.500	1.6146e-02
11.000	19.750	1.8545e-02
11.000	20.000	1.9265e-02
11.000	20.250	2.0767e-02
11.000	20.500	2.1835e-02
11.000	20.750	2.3273e-02
11.000	21.000	2.4848e-02
11.000	21.250	2.2493e-02
11.000	21.500	2.0375e-02
11.000	21.750	1.8140e-02
11.000	22.000	1.6463e-02
11.000	22.250	1.5461e-02
11.000	22.500	1.4834e-02
11.000	22.750	1.4524e-02
11.000	23.000	1.4359e-02
11.000	23.250	1.4264e-02
11.000	23.500	1.4224e-02
11.000	23.750	1.4207e-02
11.000	24.000	1.4200e-02
11.250	17.000	1.7606e-02
11.250	17.250	1.5587e-02
11.250	17.500	1.4261e-02
11.250	17.750	1.3693e-02
11.250	18.000	1.3419e-02
11.250	18.250	1.3048e-02
11.250	18.500	1.2696e-02
11.250	18.750	1.2692e-02
11.250	19.000	1.2902e-02
11.250	19.250	1.3508e-02
11.250	19.500	1.4728e-02
11.250	19.750	1.6761e-02
11.250	20.000	1.9159e-02
11.250	20.250	1.9779e-02
11.250	20.500	2.1425e-02
11.250	20.750	2.2747e-02
11.250	21.000	2.4232e-02
11.250	21.250	2.5388e-02
11.250	21.500	2.2634e-02
11.250	21.750	2.0374e-02
11.250	22.000	1.8138e-02
11.250	22.250	1.6462e-02
11.250	22.500	1.5461e-02
11.250	22.750	1.4833e-02
11.250	23.000	1.4524e-02
11.250	23.250	1.4359e-02
11.250	23.500	1.4265e-02
11.250	23.750	1.4224e-02
11.250	24.000	1.4207e-02
11.500	17.000	1.9497e-02
11.500	17.250	1.7431e-02
11.500	17.500	1.6081e-02
11.500	17.750	1.5462e-02
11.500	18.000	1.4989e-02
11.500	18.250	1.4250e-02
11.500	18.500	1.3502e-02
11.500	18.750	1.3050e-02
11.500	19.000	1.2944e-02
11.500	19.250	1.3126e-02
11.500	19.500	1.3789e-02
11.500	19.750	1.5179e-02
11.500	20.000	1.7424e-02
11.500	20.250	1.9796e-02
11.500	20.500	2.0481e-02
11.500	20.750	2.2434e-02
11.500	21.000	2.4045e-02
11.500	21.250	2.5803e-02
11.500	21.500	2.6059e-02
11.500	21.750	2.2863e-02
11.500	22.000	2.0388e-02
11.500	22.250	1.8134e-02
11.500	22.500	1.6462e-02
11.500	22.750	1.5462e-02
11.500	23.000	1.4833e-02
11.500	23.250	1.4524e-02
11.500	23.500	1.4359e-02
11.500	23.750	1.4265e-02
11.500	24.000	1.4224e-02
11.750	17.000	2.1182e-02
11.750	17.250	1.9239e-02
11.750	17.500	1.7944e-02
11.750	17.750	1.7285e-02
11.750	18.000	1.6642e-02
11.750	18.250	1.5735e-02
11.750	18.500	1.4708e-02
11.750	18.750	1.3790e-02
11.750	19.000	1.3243e-02
11.750	19.250	1.3089e-02
11.750	19.500	1.3293e-02
11.750	19.750	1.4063e-02
11.750	20.000	1.5657e-02
11.750	20.250	1.8146e-02
11.750	20.500	2.0492e-02
11.750	20.750	2.1416e-02
11.750	21.000	2.3907e-02
11.750	21.250	2.6120e-02
11.750	21.500	2.8142e-02
11.750	21.750	2.6779e-02
11.750	22.000	2.3175e-02
11.750	22.250	2.0422e-02
11.750	22.500	1.8129e-02
11.750	22.750	1.6461e-02
11.750	23.000	1.5462e-02
11.750	23.250	1.4833e-02
11.750	23.500	1.4524e-02
11.750	23.750	1.4359e-02
11.750	24.000	1.4266e-02
12.000	17.000	2.2243e-02
12.000	17.250	2.0672e-02
12.000	17.500	1.9592e-02
12.000	17.750	1.8979e-02
12.000	18.000	1.8283e-02
12.000	18.250	1.7335e-02
12.000	18.500	1.6144e-02
12.000	18.750	1.4929e-02
12.000	19.000	1.3927e-02
12.000	19.250	1.3299e-02
12.000	19.500	1.3160e-02
12.000	19.750	1.3419e-02
12.000	20.000	1.4344e-02
12.000	20.250	1.6193e-02
12.000	20.500	1.8963e-02
12.000	20.750	2.1301e-02
12.000	21.000	2.2885e-02
12.000	21.250	2.6129e-02
12.000	21.500	2.9013e-02
12.000	21.750	3.1084e-02
12.000	22.000	2.7536e-02
12.000	22.250	2.3418e-02
12.000	22.500	2.0478e-02
12.000	22.750	1.8125e-02
12.000	23.000	1.6460e-02
12.000	23.250	1.5463e-02
12.000	23.500	1.4833e-02
12.000	23.750	1.4523e-02
12.000	24.000	1.4359e-02
12.250	17.000	2.2199e-02
12.250	17.250	2.1325e-02
12.250	17.500	2.0701e-02
12.250	17.750	2.0327e-02
12.250	18.000	1.9738e-02
12.250	18.250	1.8802e-02
12.250	18.500	1.7595e-02
12.250	18.750	1.6259e-02
12.250	19.000	1.4957e-02
12.250	19.250	1.3877e-02
12.250	19.500	1.3273e-02
12.250	19.750	1.3178e-02
12.250	20.000	1.3539e-02
12.250	20.250	1.4675e-02
12.250	20.500	1.6805e-02
12.250	20.750	1.9967e-02
12.250	21.000	2.2645e-02
12.250	21.250	2.5281e-02
12.250	21.500	2.9198e-02
12.250	21.750	3.2706e-02
12.250	22.000	3.3424e-02
12.250	22.250	2.8242e-02
12.250	22.500	2.3762e-02
12.250	22.750	2.0549e-02
12.250	23.000	1.8122e-02
12.250	23.250	1.6459e-02
12.250	23.500	1.5463e-02
12.250	23.750	1.4832e-02
12.250	24.000	1.4523e-02
12.500	17.000	2.1266e-02
12.500	17.250	2.1240e-02
12.500	17.500	2.1219e-02
12.500	17.750	2.1119e-02
12.500	18.000	2.0711e-02
12.500	18.250	1.9912e-02
12.500	18.500	1.8821e-02
12.500	18.750	1.7528e-02
12.500	19.000	1.6150e-02
12.500	19.250	1.4813e-02
12.500	19.500	1.3754e-02
12.500	19.750	1.3200e-02
12.500	20.000	1.3173e-02
12.500	20.250	1.3682e-02
12.500	20.500	1.5068e-02
12.500	20.750	1.7632e-02
12.500	21.000	2.1555e-02
12.500	21.250	2.4778e-02
12.500	21.500	2.8530e-02
12.500	21.750	3.3140e-02
12.500	22.000	3.6849e-02
12.500	22.250	3.5077e-02
12.500	22.500	2.8928e-02
12.500	22.750	2.4204e-02
12.500	23.000	2.0632e-02
12.500	23.250	1.8120e-02
12.500	23.500	1.6458e-02
12.500	23.750	1.5463e-02
12.500	24.000	1.4832e-02
12.750	17.000	2.0593e-02
12.750	17.250	2.0855e-02
12.750	17.500	2.1090e-02
12.750	17.750	2.1140e-02
12.750	18.000	2.0963e-02
12.750	18.250	2.0466e-02
12.750	18.500	1.9626e-02
12.750	18.750	1.8550e-02
12.750	19.000	1.7273e-02
12.750	19.250	1.5900e-02
12.750	19.500	1.4567e-02
12.750	19.750	1.3554e-02
12.750	20.000	1.3061e-02
12.750	20.250	1.3181e-02
12.750	20.500	1.3863e-02
12.750	20.750	1.5646e-02
12.750	21.000	1.8884e-02
12.750	21.250	2.3955e-02
12.750	21.500	2.7771e-02
12.750	21.750	3.2485e-02
12.750	22.000	3.7866e-02
12.750	22.250	4.0906e-02
12.750	22.500	3.6627e-02
12.750	22.750	2.9662e-02
12.750	23.000	2.4559e-02
12.750	23.250	2.0714e-02
12.750	23.500	1.8121e-02
12.750	23.750	1.6457e-02
12.750	24.000	1.5464e-02
13.000	17.000	1.8997e-02
13.000	17.250	1.9647e-02
13.000	17.500	1.9945e-02
13.000	17.750	2.0223e-02
13.000	18.000	2.0393e-02
13.000	18.250	2.0299e-02
13.000	18.500	1.9866e-02
13.000	18.750	1.9106e-02
13.000	19.000	1.8085e-02
13.000	19.250	1.6862e-02
13.000	19.500	1.5527e-02
13.000	19.750	1.4253e-02
13.000	20.000	1.3292e-02
13.000	20.250	1.2892e-02
13.000	20.500	1.3174e-02
13.000	20.750	1.4188e-02
13.000	21.000	1.6593e-02
13.000	21.250	2.0783e-02
13.000	21.500	2.6645e-02
13.000	21.750	3.1609e-02
13.000	22.000	3.7733e-02
13.000	22.250	4.2758e-02
13.000	22.500	4.4405e-02
13.000	22.750	3.8209e-02
13.000	23.000	3.0680e-02
13.000	23.250	2.4748e-02
13.000	23.500	2.0801e-02
13.000	23.750	1.8125e-02
13.000	24.000	1.6456e-02
13.250	17.000	1.7879e-02
13.250	17.250	1.8473e-02
13.250	17.500	1.8750e-02
13.250	17.750	1.8958e-02
13.250	18.000	1.9220e-02
13.250	18.250	1.9410e-02
13.250	18.500	1.9395e-02
13.250	18.750	1.9060e-02
13.250	19.000	1.8404e-02
13.250	19.250	1.7464e-02
13.250	19.500	1.6328e-02
13.250	19.750	1.5079e-02
13.250	20.000	1.3899e-02
13.250	20.250	1.3016e-02
13.250	20.500	1.2694e-02
13.250	20.750	1.3147e-02
13.250	21.000	1.4699e-02
13.250	21.250	1.7534e-02
13.250	21.500	2.2252e-02
13.250	21.750	2.8633e-02
13.250	22.000	3.5613e-02
13.250	22.250	4.1033e-02
13.250	22.500	4.6838e-02
13.250	22.750	4.7452e-02
13.250	23.000	3.9792e-02
13.250	23.250	3.1415e-02
13.250	23.500	2.5037e-02
13.250	23.750	2.0881e-02
13.250	24.000	1.8131e-02
13.500	17.000	1.6658e-02
13.500	17.250	1.7351e-02
13.500	17.500	1.7589e-02
13.500	17.750	1.7723e-02
13.500	18.000	1.7983e-02
13.500	18.250	1.8270e-02
13.500	18.500	1.8435e-02
13.500	18.750	1.8382e-02
13.500	19.000	1.8102e-02
13.500	19.250	1.7550e-02
13.500	19.500	1.6716e-02
13.500	19.750	1.5681e-02
13.500	20.000	1.4554e-02
13.500	20.250	1.3519e-02
13.500	20.500	1.2718e-02
13.500	20.750	1.2466e-02
13.500	21.000	1.2980e-02
13.500	21.250	1.4753e-02
13.500	21.500	1.7473e-02
13.500	21.750	2.2639e-02
13.500	22.000	3.0005e-02
13.500	22.250	3.7611e-02
13.500	22.500	4.4559e-02
13.500	22.750	5.0713e-02
13.500	23.000	5.0399e-02
13.500	23.250	4.1166e-02
13.500	23.500	3.2043e-02
13.500	23.750	2.5442e-02
13.500	24.000	2.0954e-02
13.750	17.000	1.5287e-02
13.750	17.250	1.6177e-02
13.750	17.500	1.6455e-02
13.750	17.750	1.6533e-02
13.750	18.000	1.6764e-02
13.750	18.250	1.7094e-02
13.750	18.500	1.7363e-02
13.750	18.750	1.7456e-02
13.750	19.000	1.7361e-02
13.750	19.250	1.7076e-02
13.750	19.500	1.6602e-02
13.750	19.750	1.5893e-02
13.750	20.000	1.5007e-02
13.750	20.250	1.4048e-02
13.750	20.500	1.3168e-02
13.750	20.750	1.2531e-02
13.750	21.000	1.2396e-02
13.750	21.250	1.2975e-02
13.750	21.500	1.4619e-02
13.750	21.750	1.7735e-02
13.750	22.000	2.3233e-02
13.750	22.250	3.2045e-02
13.750	22.500	4.1093e-02
13.750	22.750	4.8654e-02
13.750	23.000	5.4590e-02
13.750	23.250	5.3516e-02
13.750	23.500	4.2677e-02
13.750	23.750	3.2637e-02
13.750	24.000	2.5679e-02
14.000	17.000	1.3638e-02
14.000	17.250	1.4868e-02
14.000	17.500	1.5331e-02
14.000	17.750	1.5384e-02
14.000	18.000	1.5575e-02
14.000	18.250	1.5913e-02
14.000	18.500	1.6234e-02
14.000	18.750	1.6425e-02
14.000	19.000	1.6451e-02
14.000	19.250	1.6329e-02
14.000	19.500	1.6062e-02
14.000	19.750	1.5657e-02
14.000	20.000	1.5092e-02
14.000	20.250	1.4380e-02
14.000	20.500	1.3634e-02
14.000	20.750	1.2977e-02
14.000	21.000	1.2583e-02
14.000	21.250	1.2711e-02
14.000	21.500	1.3434e-02
14.000	21.750	1.5388e-02
14.000	22.000	1.9081e-02
14.000	22.250	2.5790e-02
14.000	22.500	3.6664e-02
14.000	22.750	4.6917e-02
14.000	23.000	5.5538e-02
14.000	23.250	5.9697e-02
14.000	23.500	5.7041e-02
14.000	23.750	4.4027e-02
14.000	24.000	3.3266e-02
