InwC 9000.00A  relative to Inci 1215.00A scaled to 1215A.
Hden   Phi(H)  Eq_Width (A)
7.000  17.000  2.0933e-02
7.000  17.250  2.9700e-02
7.000  17.500  3.8498e-02
7.000  17.750  4.7500e-02
7.000  18.000  4.8950e-02
7.000  18.250  4.9571e-02
7.000  18.500  4.9598e-02
7.000  18.750  4.9540e-02
7.000  19.000  4.9546e-02
7.000  19.250  4.9551e-02
7.000  19.500  4.9553e-02
7.000  19.750  4.9553e-02
7.000  20.000  4.9554e-02
7.000  20.250  4.9554e-02
7.000  20.500  4.9554e-02
7.000  20.750  4.9554e-02
7.000  21.000  4.9554e-02
7.000  21.250  4.9554e-02
7.000  21.500  4.9554e-02
7.000  21.750  4.9554e-02
7.000  22.000  4.9554e-02
7.000  22.250  4.9554e-02
7.000  22.500  4.9554e-02
7.000  22.750  4.9554e-02
7.000  23.000  4.9555e-02
7.000  23.250  4.9555e-02
7.000  23.500  4.9555e-02
7.000  23.750  4.9555e-02
7.000  24.000  4.9555e-02
7.250  17.000  1.4211e-02
7.250  17.250  2.1415e-02
7.250  17.500  3.0552e-02
7.250  17.750  3.9091e-02
7.250  18.000  4.7506e-02
7.250  18.250  4.8962e-02
7.250  18.500  4.9571e-02
7.250  18.750  4.9598e-02
7.250  19.000  4.9541e-02
7.250  19.250  4.9546e-02
7.250  19.500  4.9551e-02
7.250  19.750  4.9552e-02
7.250  20.000  4.9553e-02
7.250  20.250  4.9554e-02
7.250  20.500  4.9554e-02
7.250  20.750  4.9554e-02
7.250  21.000  4.9554e-02
7.250  21.250  4.9554e-02
7.250  21.500  4.9554e-02
7.250  21.750  4.9554e-02
7.250  22.000  4.9554e-02
7.250  22.250  4.9554e-02
7.250  22.500  4.9554e-02
7.250  22.750  4.9554e-02
7.250  23.000  4.9554e-02
7.250  23.250  4.9554e-02
7.250  23.500  4.9554e-02
7.250  23.750  4.9554e-02
7.250  24.000  4.9554e-02
7.500  17.000  9.5602e-03
7.500  17.250  1.4594e-02
7.500  17.500  2.2091e-02
7.500  17.750  3.1672e-02
7.500  18.000  3.9710e-02
7.500  18.250  4.7513e-02
7.500  18.500  4.8973e-02
7.500  18.750  4.9570e-02
7.500  19.000  4.9599e-02
7.500  19.250  4.9540e-02
7.500  19.500  4.9546e-02
7.500  19.750  4.9551e-02
7.500  20.000  4.9553e-02
7.500  20.250  4.9553e-02
7.500  20.500  4.9554e-02
7.500  20.750  4.9554e-02
7.500  21.000  4.9554e-02
7.500  21.250  4.9554e-02
7.500  21.500  4.9554e-02
7.500  21.750  4.9554e-02
7.500  22.000  4.9554e-02
7.500  22.250  4.9554e-02
7.500  22.500  4.9554e-02
7.500  22.750  4.9554e-02
7.500  23.000  4.9554e-02
7.500  23.250  4.9554e-02
7.500  23.500  4.9554e-02
7.500  23.750  4.9554e-02
7.500  24.000  4.9554e-02
7.750  17.000  6.5086e-03
7.750  17.250  9.8661e-03
7.750  17.500  1.5200e-02
7.750  17.750  2.3166e-02
7.750  18.000  3.3052e-02
7.750  18.250  4.0434e-02
7.750  18.500  4.7518e-02
7.750  18.750  4.8986e-02
7.750  19.000  4.9571e-02
7.750  19.250  4.9600e-02
7.750  19.500  4.9541e-02
7.750  19.750  4.9546e-02
7.750  20.000  4.9551e-02
7.750  20.250  4.9553e-02
7.750  20.500  4.9553e-02
7.750  20.750  4.9553e-02
7.750  21.000  4.9554e-02
7.750  21.250  4.9554e-02
7.750  21.500  4.9554e-02
7.750  21.750  4.9556e-02
7.750  22.000  4.9554e-02
7.750  22.250  4.9554e-02
7.750  22.500  4.9554e-02
7.750  22.750  4.9554e-02
7.750  23.000  4.9554e-02
7.750  23.250  4.9554e-02
7.750  23.500  4.9554e-02
7.750  23.750  4.9554e-02
7.750  24.000  4.9554e-02
8.000  17.000  4.5175e-03
8.000  17.250  6.7132e-03
8.000  17.500  1.0321e-02
8.000  17.750  1.6153e-02
8.000  18.000  2.4780e-02
8.000  18.250  3.4747e-02
8.000  18.500  4.1241e-02
8.000  18.750  4.7521e-02
8.000  19.000  4.8992e-02
8.000  19.250  4.9571e-02
8.000  19.500  4.9598e-02
8.000  19.750  4.9541e-02
8.000  20.000  4.9546e-02
8.000  20.250  4.9551e-02
8.000  20.500  4.9553e-02
8.000  20.750  4.9553e-02
8.000  21.000  4.9553e-02
8.000  21.250  4.9554e-02
8.000  21.500  4.9554e-02
8.000  21.750  4.9554e-02
8.000  22.000  4.9554e-02
8.000  22.250  4.9554e-02
8.000  22.500  4.9554e-02
8.000  22.750  4.9554e-02
8.000  23.000  4.9554e-02
8.000  23.250  4.9554e-02
8.000  23.500  4.9554e-02
8.000  23.750  4.9554e-02
8.000  24.000  4.9554e-02
8.250  17.000  3.2105e-03
8.250  17.250  4.6843e-03
8.250  17.500  7.0891e-03
8.250  17.750  1.1167e-02
8.250  18.000  1.7839e-02
8.250  18.250  2.7455e-02
8.250  18.500  3.6594e-02
8.250  18.750  4.2436e-02
8.250  19.000  4.7527e-02
8.250  19.250  4.9007e-02
8.250  19.500  4.9571e-02
8.250  19.750  4.9598e-02
8.250  20.000  4.9541e-02
8.250  20.250  4.9546e-02
8.250  20.500  4.9551e-02
8.250  20.750  4.9552e-02
8.250  21.000  4.9553e-02
8.250  21.250  4.9554e-02
8.250  21.500  4.9554e-02
8.250  21.750  4.9554e-02
8.250  22.000  4.9554e-02
8.250  22.250  4.9554e-02
8.250  22.500  4.9554e-02
8.250  22.750  4.9554e-02
8.250  23.000  4.9554e-02
8.250  23.250  4.9554e-02
8.250  23.500  4.9554e-02
8.250  23.750  4.9554e-02
8.250  24.000  4.9554e-02
8.500  17.000  2.3095e-03
8.500  17.250  3.3340e-03
8.500  17.500  4.9612e-03
8.500  17.750  7.7607e-03
8.500  18.000  1.2648e-02
8.500  18.250  2.0546e-02
8.500  18.500  3.0649e-02
8.500  18.750  3.8660e-02
8.500  19.000  4.3351e-02
8.500  19.250  4.7530e-02
8.500  19.500  4.9025e-02
8.500  19.750  4.9571e-02
8.500  20.000  4.9598e-02
8.500  20.250  4.9540e-02
8.500  20.500  4.9546e-02
8.500  20.750  4.9551e-02
8.500  21.000  4.9553e-02
8.500  21.250  4.9553e-02
8.500  21.500  4.9554e-02
8.500  21.750  4.9554e-02
8.500  22.000  4.9554e-02
8.500  22.250  4.9554e-02
8.500  22.500  4.9554e-02
8.500  22.750  4.9554e-02
8.500  23.000  4.9554e-02
8.500  23.250  4.9554e-02
8.500  23.500  4.9554e-02
8.500  23.750  4.9554e-02
8.500  24.000  4.9554e-02
8.750  17.000  1.6681e-03
8.750  17.250  2.4000e-03
8.750  17.500  3.5369e-03
8.750  17.750  5.4542e-03
8.750  18.000  8.9409e-03
8.750  18.250  1.4994e-02
8.750  18.500  2.3579e-02
8.750  18.750  3.3575e-02
8.750  19.000  3.9781e-02
8.750  19.250  4.4371e-02
8.750  19.500  4.7528e-02
8.750  19.750  4.9046e-02
8.750  20.000  4.9571e-02
8.750  20.250  4.9598e-02
8.750  20.500  4.9541e-02
8.750  20.750  4.9546e-02
8.750  21.000  4.9551e-02
8.750  21.250  4.9553e-02
8.750  21.500  4.9553e-02
8.750  21.750  4.9553e-02
8.750  22.000  4.9554e-02
8.750  22.250  4.9554e-02
8.750  22.500  4.9554e-02
8.750  22.750  4.9554e-02
8.750  23.000  4.9554e-02
8.750  23.250  4.9554e-02
8.750  23.500  4.9554e-02
8.750  23.750  4.9554e-02
8.750  24.000  4.9554e-02
9.000  17.000  1.2049e-03
9.000  17.250  1.7340e-03
9.000  17.500  2.5493e-03
9.000  17.750  3.9063e-03
9.000  18.000  6.3689e-03
9.000  18.250  1.0838e-02
9.000  18.500  1.7750e-02
9.000  18.750  2.6699e-02
9.000  19.000  3.5966e-02
9.000  19.250  4.1260e-02
9.000  19.500  4.5258e-02
9.000  19.750  4.7512e-02
9.000  20.000  4.9068e-02
9.000  20.250  4.9570e-02
9.000  20.500  4.9597e-02
9.000  20.750  4.9540e-02
9.000  21.000  4.9546e-02
9.000  21.250  4.9551e-02
9.000  21.500  4.9553e-02
9.000  21.750  4.9553e-02
9.000  22.000  4.9553e-02
9.000  22.250  4.9554e-02
9.000  22.500  4.9554e-02
9.000  22.750  4.9554e-02
9.000  23.000  4.9554e-02
9.000  23.250  4.9554e-02
9.000  23.500  4.9554e-02
9.000  23.750  4.9554e-02
9.000  24.000  4.9554e-02
9.250  17.000  8.6798e-04
9.250  17.250  1.2530e-03
9.250  17.500  1.8459e-03
9.250  17.750  2.8267e-03
9.250  18.000  4.6180e-03
9.250  18.250  7.8992e-03
9.250  18.500  1.3056e-02
9.250  18.750  2.0432e-02
9.250  19.000  2.9026e-02
9.250  19.250  3.8191e-02
9.250  19.500  4.2400e-02
9.250  19.750  4.6178e-02
9.250  20.000  4.7491e-02
9.250  20.250  4.9090e-02
9.250  20.500  4.9570e-02
9.250  20.750  4.9598e-02
9.250  21.000  4.9540e-02
9.250  21.250  4.9545e-02
9.250  21.500  4.9549e-02
9.250  21.750  4.9536e-02
9.250  22.000  4.9491e-02
9.250  22.250  4.9537e-02
9.250  22.500  4.9553e-02
9.250  22.750  4.9554e-02
9.250  23.000  4.9554e-02
9.250  23.250  4.9554e-02
9.250  23.500  4.9554e-02
9.250  23.750  4.9554e-02
9.250  24.000  4.9554e-02
9.500  17.000  6.2337e-04
9.500  17.250  9.0305e-04
9.500  17.500  1.3367e-03
9.500  17.750  2.0607e-03
9.500  18.000  3.3947e-03
9.500  18.250  5.8542e-03
9.500  18.500  9.7281e-03
9.500  18.750  1.5189e-02
9.500  19.000  2.2538e-02
9.500  19.250  3.1350e-02
9.500  19.500  3.9278e-02
9.500  19.750  4.3331e-02
9.500  20.000  4.6408e-02
9.500  20.250  4.7464e-02
9.500  20.500  4.9112e-02
9.500  20.750  4.9568e-02
9.500  21.000  4.9594e-02
9.500  21.250  4.9532e-02
9.500  21.500  4.9505e-02
9.500  21.750  4.9477e-02
9.500  22.000  4.9467e-02
9.500  22.250  4.9449e-02
9.500  22.500  4.9433e-02
9.500  22.750  4.9423e-02
9.500  23.000  4.9418e-02
9.500  23.250  4.9419e-02
9.500  23.500  4.9479e-02
9.500  23.750  4.9478e-02
9.500  24.000  4.9478e-02
9.750  17.000  4.4733e-04
9.750  17.250  6.5004e-04
9.750  17.500  9.6650e-04
9.750  17.750  1.5046e-03
9.750  18.000  2.5095e-03
9.750  18.250  4.3810e-03
9.750  18.500  7.3048e-03
9.750  18.750  1.1367e-02
9.750  19.000  1.6872e-02
9.750  19.250  2.4322e-02
9.750  19.500  3.3906e-02
9.750  19.750  4.0145e-02
9.750  20.000  4.4292e-02
9.750  20.250  4.6342e-02
9.750  20.500  4.7436e-02
9.750  20.750  4.9136e-02
9.750  21.000  4.9564e-02
9.750  21.250  4.9595e-02
9.750  21.500  4.9537e-02
9.750  21.750  4.9532e-02
9.750  22.000  4.9478e-02
9.750  22.250  4.9474e-02
9.750  22.500  4.9463e-02
9.750  22.750  4.9451e-02
9.750  23.000  4.9442e-02
9.750  23.250  4.9435e-02
9.750  23.500  4.9432e-02
9.750  23.750  4.9431e-02
9.750  24.000  4.9429e-02
10.000  17.000  3.2132e-04
10.000  17.250  4.6741e-04
10.000  17.500  6.9835e-04
10.000  17.750  1.0988e-03
10.000  18.000  1.8604e-03
10.000  18.250  3.2537e-03
10.000  18.500  5.4465e-03
10.000  18.750  8.4542e-03
10.000  19.000  1.2557e-02
10.000  19.250  1.8136e-02
10.000  19.500  2.6149e-02
10.000  19.750  3.5141e-02
10.000  20.000  4.1074e-02
10.000  20.250  4.5065e-02
10.000  20.500  4.6278e-02
10.000  20.750  4.7429e-02
10.000  21.000  4.9166e-02
10.000  21.250  4.9556e-02
10.000  21.500  4.9593e-02
10.000  21.750  4.9538e-02
10.000  22.000  4.9541e-02
10.000  22.250  4.9491e-02
10.000  22.500  4.9478e-02
10.000  22.750  4.9472e-02
10.000  23.000  4.9464e-02
10.000  23.250  4.9458e-02
10.000  23.500  4.9453e-02
10.000  23.750  4.9451e-02
10.000  24.000  4.9449e-02
10.250  17.000  2.3119e-04
10.250  17.250  3.3613e-04
10.250  17.500  5.0362e-04
10.250  17.750  8.0132e-04
10.250  18.000  1.3748e-03
10.250  18.250  2.4151e-03
10.250  18.500  4.0388e-03
10.250  18.750  6.2263e-03
10.250  19.000  9.2231e-03
10.250  19.250  1.3441e-02
10.250  19.500  1.9442e-02
10.250  19.750  2.7959e-02
10.250  20.000  3.5754e-02
10.250  20.250  4.1892e-02
10.250  20.500  4.5290e-02
10.250  20.750  4.6203e-02
10.250  21.000  4.7430e-02
10.250  21.250  4.9204e-02
10.250  21.500  4.9547e-02
10.250  21.750  4.9590e-02
10.250  22.000  4.9537e-02
10.250  22.250  4.9543e-02
10.250  22.500  4.9526e-02
10.250  22.750  4.9480e-02
10.250  23.000  4.9477e-02
10.250  23.250  4.9473e-02
10.250  23.500  4.9469e-02
10.250  23.750  4.9465e-02
10.250  24.000  4.9464e-02
10.500  17.000  1.6634e-04
10.500  17.250  2.4165e-04
10.500  17.500  3.6379e-04
10.500  17.750  5.8346e-04
10.500  18.000  1.0111e-03
10.500  18.250  1.7729e-03
10.500  18.500  2.9416e-03
10.500  18.750  4.5119e-03
10.500  19.000  6.7097e-03
10.500  19.250  9.7653e-03
10.500  19.500  1.4092e-02
10.500  19.750  2.0346e-02
10.500  20.000  2.8749e-02
10.500  20.250  3.6457e-02
10.500  20.500  4.2796e-02
10.500  20.750  4.5328e-02
10.500  21.000  4.6157e-02
10.500  21.250  4.7485e-02
10.500  21.500  4.9259e-02
10.500  21.750  4.9528e-02
10.500  22.000  4.9586e-02
10.500  22.250  4.9536e-02
10.500  22.500  4.9542e-02
10.500  22.750  4.9542e-02
10.500  23.000  4.9491e-02
10.500  23.250  4.9480e-02
10.500  23.500  4.9478e-02
10.500  23.750  4.9476e-02
10.500  24.000  4.9473e-02
10.750  17.000  1.2016e-04
10.750  17.250  1.7358e-04
10.750  17.500  2.6181e-04
10.750  17.750  4.2329e-04
10.750  18.000  7.3391e-04
10.750  18.250  1.2907e-03
10.750  18.500  2.1140e-03
10.750  18.750  3.2526e-03
10.750  19.000  4.8190e-03
10.750  19.250  7.0797e-03
10.750  19.500  1.0191e-02
10.750  19.750  1.4619e-02
10.750  20.000  2.1000e-02
10.750  20.250  2.9430e-02
10.750  20.500  3.7215e-02
10.750  20.750  4.3532e-02
10.750  21.000  4.5200e-02
10.750  21.250  4.6114e-02
10.750  21.500  4.7672e-02
10.750  21.750  4.9280e-02
10.750  22.000  4.9497e-02
10.750  22.250  4.9579e-02
10.750  22.500  4.9533e-02
10.750  22.750  4.9541e-02
10.750  23.000  4.9547e-02
10.750  23.250  4.9526e-02
10.750  23.500  4.9484e-02
10.750  23.750  4.9480e-02
10.750  24.000  4.9479e-02
11.000  17.000  8.6749e-05
11.000  17.250  1.2502e-04
11.000  17.500  1.8815e-04
11.000  17.750  3.0403e-04
11.000  18.000  5.2609e-04
11.000  18.250  9.1794e-04
11.000  18.500  1.4850e-03
11.000  18.750  2.2947e-03
11.000  19.000  3.4286e-03
11.000  19.250  5.0492e-03
11.000  19.500  7.3112e-03
11.000  19.750  1.0483e-02
11.000  20.000  1.5003e-02
11.000  20.250  2.1530e-02
11.000  20.500  3.0047e-02
11.000  20.750  3.7941e-02
11.000  21.000  4.3914e-02
11.000  21.250  4.5024e-02
11.000  21.500  4.6192e-02
11.000  21.750  4.7940e-02
11.000  22.000  4.9257e-02
11.000  22.250  4.9451e-02
11.000  22.500  4.9567e-02
11.000  22.750  4.9527e-02
11.000  23.000  4.9538e-02
11.000  23.250  4.9548e-02
11.000  23.500  4.9543e-02
11.000  23.750  4.9508e-02
11.000  24.000  4.9486e-02
11.250  17.000  6.3374e-05
11.250  17.250  8.9794e-05
11.250  17.500  1.3490e-04
11.250  17.750  2.1712e-04
11.250  18.000  3.7284e-04
11.250  18.250  6.4222e-04
11.250  18.500  1.0314e-03
11.250  18.750  1.6079e-03
11.250  19.000  2.4267e-03
11.250  19.250  3.5739e-03
11.250  19.500  5.1915e-03
11.250  19.750  7.4787e-03
11.250  20.000  1.0719e-02
11.250  20.250  1.5327e-02
11.250  20.500  2.1951e-02
11.250  20.750  3.0534e-02
11.250  21.000  3.8437e-02
11.250  21.250  4.3602e-02
11.250  21.500  4.4984e-02
11.250  21.750  4.6241e-02
11.250  22.000  4.8215e-02
11.250  22.250  4.9155e-02
11.250  22.500  4.9389e-02
11.250  22.750  4.9545e-02
11.250  23.000  4.9519e-02
11.250  23.250  4.9533e-02
11.250  23.500  4.9547e-02
11.250  23.750  4.9548e-02
11.250  24.000  4.9539e-02
11.500  17.000  4.7325e-05
11.500  17.250  6.5267e-05
11.500  17.500  9.6296e-05
11.500  17.750  1.5383e-04
11.500  18.000  2.6140e-04
11.500  18.250  4.4362e-04
11.500  18.500  7.1078e-04
11.500  18.750  1.1087e-03
11.500  19.000  1.6815e-03
11.500  19.250  2.4952e-03
11.500  19.500  3.6526e-03
11.500  19.750  5.2933e-03
11.500  20.000  7.6149e-03
11.500  20.250  1.0907e-02
11.500  20.500  1.5579e-02
11.500  20.750  2.2190e-02
11.500  21.000  3.0728e-02
11.500  21.250  3.8515e-02
11.500  21.500  4.3244e-02
11.500  21.750  4.4724e-02
11.500  22.000  4.6277e-02
11.500  22.250  4.8333e-02
11.500  22.500  4.8999e-02
11.500  22.750  4.9299e-02
11.500  23.000  4.9515e-02
11.500  23.250  4.9505e-02
11.500  23.500  4.9525e-02
11.500  23.750  4.9545e-02
11.500  24.000  4.9550e-02
11.750  17.000  3.6296e-05
11.750  17.250  4.8642e-05
11.750  17.500  6.9630e-05
11.750  17.750  1.0848e-04
11.750  18.000  1.8123e-04
11.750  18.250  3.0280e-04
11.750  18.500  4.8477e-04
11.750  18.750  7.6082e-04
11.750  19.000  1.1603e-03
11.750  19.250  1.7343e-03
11.750  19.500  2.5503e-03
11.750  19.750  3.7239e-03
11.750  20.000  5.3892e-03
11.750  20.250  7.7314e-03
11.750  20.500  1.1038e-02
11.750  20.750  1.5711e-02
11.750  21.000  2.2110e-02
11.750  21.250  3.0408e-02
11.750  21.500  3.8166e-02
11.750  21.750  4.2377e-02
11.750  22.000  4.4332e-02
11.750  22.250  4.6221e-02
11.750  22.500  4.8136e-02
11.750  22.750  4.8774e-02
11.750  23.000  4.9160e-02
11.750  23.250  4.9467e-02
11.750  23.500  4.9485e-02
11.750  23.750  4.9513e-02
11.750  24.000  4.9542e-02
12.000  17.000  2.2963e-05
12.000  17.250  3.7366e-05
12.000  17.500  5.1523e-05
12.000  17.750  7.7202e-05
12.000  18.000  1.2486e-04
12.000  18.250  2.0510e-04
12.000  18.500  3.3012e-04
12.000  18.750  5.1770e-04
12.000  19.000  7.9358e-04
12.000  19.250  1.1937e-03
12.000  19.500  1.7679e-03
12.000  19.750  2.6020e-03
12.000  20.000  3.7909e-03
12.000  20.250  5.4667e-03
12.000  20.500  7.8113e-03
12.000  20.750  1.1107e-02
12.000  21.000  1.5618e-02
12.000  21.250  2.1628e-02
12.000  21.500  2.9536e-02
12.000  21.750  3.7032e-02
12.000  22.000  4.1144e-02
12.000  22.250  4.3685e-02
12.000  22.500  4.5914e-02
12.000  22.750  4.7715e-02
12.000  23.000  4.8438e-02
12.000  23.250  4.8948e-02
12.000  23.500  4.9397e-02
12.000  23.750  4.9453e-02
12.000  24.000  4.9495e-02
12.250  17.000  1.1029e-05
12.250  17.250  2.5267e-05
12.250  17.500  3.9506e-05
12.250  17.750  5.6461e-05
12.250  18.000  8.7160e-05
12.250  18.250  1.4074e-04
12.250  18.500  2.2395e-04
12.250  18.750  3.4930e-04
12.250  19.000  5.3786e-04
12.250  19.250  8.1490e-04
12.250  19.500  1.2179e-03
12.250  19.750  1.8043e-03
12.250  20.000  2.6440e-03
12.250  20.250  3.8376e-03
12.250  20.500  5.5145e-03
12.250  20.750  7.8526e-03
12.250  21.000  1.1036e-02
12.250  21.250  1.5244e-02
12.250  21.500  2.0761e-02
12.250  21.750  2.8035e-02
12.250  22.000  3.5063e-02
12.250  22.250  3.9525e-02
12.250  22.500  4.2699e-02
12.250  22.750  4.5246e-02
12.250  23.000  4.7033e-02
12.250  23.250  4.7943e-02
12.250  23.500  4.8625e-02
12.250  23.750  4.9289e-02
12.250  24.000  4.9405e-02
12.500  17.000  5.4321e-06
12.500  17.250  1.2181e-05
12.500  17.500  2.7078e-05
12.500  17.750  4.2963e-05
12.500  18.000  6.3457e-05
12.500  18.250  9.7695e-05
12.500  18.500  1.5185e-04
12.500  18.750  2.3638e-04
12.500  19.000  3.6461e-04
12.500  19.250  5.5333e-04
12.500  19.500  8.3169e-04
12.500  19.750  1.2390e-03
12.500  20.000  1.8290e-03
12.500  20.250  2.6714e-03
12.500  20.500  3.8643e-03
12.500  20.750  5.5340e-03
12.500  21.000  7.8040e-03
12.500  21.250  1.0778e-02
12.500  21.500  1.4588e-02
12.500  21.750  1.9375e-02
12.500  22.000  2.5795e-02
12.500  22.250  3.2425e-02
12.500  22.500  3.7584e-02
12.500  22.750  4.1050e-02
12.500  23.000  4.3955e-02
12.500  23.250  4.6014e-02
12.500  23.500  4.7203e-02
12.500  23.750  4.8127e-02
12.500  24.000  4.9118e-02
12.750  17.000  2.7984e-06
12.750  17.250  6.0082e-06
12.750  17.500  1.3004e-05
12.750  17.750  2.8395e-05
12.750  18.000  4.6420e-05
12.750  18.250  6.8724e-05
12.750  18.500  1.0412e-04
12.750  18.750  1.5934e-04
12.750  19.000  2.4469e-04
12.750  19.250  3.7325e-04
12.750  19.500  5.6428e-04
12.750  19.750  8.4444e-04
12.750  20.000  1.2532e-03
12.750  20.250  1.8460e-03
12.750  20.500  2.6891e-03
12.750  20.750  3.8748e-03
12.750  21.000  5.5045e-03
12.750  21.250  7.6412e-03
12.750  21.500  1.0339e-02
12.750  21.750  1.3487e-02
12.750  22.000  1.7346e-02
12.750  22.250  2.2963e-02
12.750  22.500  2.9391e-02
12.750  22.750  3.4490e-02
12.750  23.000  3.8506e-02
12.750  23.250  4.2032e-02
12.750  23.500  4.4541e-02
12.750  23.750  4.6116e-02
12.750  24.000  4.7368e-02
13.000  17.000  1.0000e-07
13.000  17.250  1.7284e-06
13.000  17.500  4.7737e-06
13.000  17.750  1.1934e-05
13.000  18.000  2.5103e-05
13.000  18.250  4.2551e-05
13.000  18.500  6.8724e-05
13.000  18.750  1.0807e-04
13.000  19.000  1.6387e-04
13.000  19.250  2.5070e-04
13.000  19.500  3.8082e-04
13.000  19.750  5.7251e-04
13.000  20.000  8.5317e-04
13.000  20.250  1.2645e-03
13.000  20.500  1.8571e-03
13.000  20.750  2.6971e-03
13.000  21.000  3.8605e-03
13.000  21.250  5.4001e-03
13.000  21.500  7.3590e-03
13.000  21.750  9.5074e-03
13.000  22.000  1.1747e-02
13.000  22.250  1.4717e-02
13.000  22.500  1.9653e-02
13.000  22.750  2.5477e-02
13.000  23.000  3.0438e-02
13.000  23.250  3.5168e-02
13.000  23.500  3.9437e-02
13.000  23.750  4.2486e-02
13.000  24.000  4.4535e-02
13.250  17.000  1.0000e-07
13.250  17.250  9.0535e-07
13.250  17.500  1.9753e-06
13.250  17.750  4.6914e-06
13.250  18.000  1.1523e-05
13.250  18.250  2.5021e-05
13.250  18.500  4.4444e-05
13.250  18.750  7.0206e-05
13.250  19.000  1.1136e-04
13.250  19.250  1.6634e-04
13.250  19.500  2.5506e-04
13.250  19.750  3.8502e-04
13.250  20.000  5.7679e-04
13.250  20.250  8.5959e-04
13.250  20.500  1.2708e-03
13.250  20.750  1.8622e-03
13.250  21.000  2.6880e-03
13.250  21.250  3.7950e-03
13.250  21.500  5.2091e-03
13.250  21.750  6.7347e-03
13.250  22.000  8.0435e-03
13.250  22.250  9.4288e-03
13.250  22.500  1.1867e-02
13.250  22.750  1.6146e-02
13.250  23.000  2.1050e-02
13.250  23.250  2.6019e-02
13.250  23.500  3.1242e-02
13.250  23.750  3.6080e-02
13.250  24.000  3.9704e-02
13.500  17.000  1.0000e-07
13.500  17.250  1.0000e-07
13.500  17.500  1.0700e-06
13.500  17.750  2.3868e-06
13.500  18.000  5.6790e-06
13.500  18.250  1.2840e-05
13.500  18.500  2.6502e-05
13.500  18.750  4.6914e-05
13.500  19.000  7.3992e-05
13.500  19.250  1.1342e-04
13.500  19.500  1.7045e-04
13.500  19.750  2.5712e-04
13.500  20.000  3.8650e-04
13.500  20.250  5.8016e-04
13.500  20.500  8.6255e-04
13.500  20.750  1.2731e-03
13.500  21.000  1.8519e-03
13.500  21.250  2.6457e-03
13.500  21.500  3.6663e-03
13.500  21.750  4.7577e-03
13.500  22.000  5.5553e-03
13.500  22.250  6.0753e-03
13.500  22.500  7.1495e-03
13.500  22.750  9.3900e-03
13.500  23.000  1.2824e-02
13.500  23.250  1.7140e-02
13.500  23.500  2.1673e-02
13.500  23.750  2.6767e-02
13.500  24.000  3.1986e-02
13.750  17.000  1.0000e-07
13.750  17.250  1.0000e-07
13.750  17.500  1.0000e-07
13.750  17.750  1.3169e-06
13.750  18.000  2.9630e-06
13.750  18.250  6.6667e-06
13.750  18.500  1.3827e-05
13.750  18.750  2.7243e-05
13.750  19.000  5.0206e-05
13.750  19.250  7.7531e-05
13.750  19.500  1.1251e-04
13.750  19.750  1.7144e-04
13.750  20.000  2.5844e-04
13.750  20.250  3.8864e-04
13.750  20.500  5.8156e-04
13.750  20.750  8.6395e-04
13.750  21.000  1.2692e-03
13.750  21.250  1.8267e-03
13.750  21.500  2.5620e-03
13.750  21.750  3.3499e-03
13.750  22.000  3.8586e-03
13.750  22.250  3.9864e-03
13.750  22.500  4.3240e-03
13.750  22.750  5.4746e-03
13.750  23.000  7.4149e-03
13.750  23.250  1.0079e-02
13.750  23.500  1.3524e-02
13.750  23.750  1.7260e-02
13.750  24.000  2.1981e-02
14.000  17.000  1.0000e-07
14.000  17.250  1.0000e-07
14.000  17.500  1.0000e-07
14.000  17.750  1.0000e-07
14.000  18.000  1.5638e-06
14.000  18.250  3.5391e-06
14.000  18.500  7.4074e-06
14.000  18.750  1.4733e-05
14.000  19.000  2.8313e-05
14.000  19.250  5.2181e-05
14.000  19.500  7.8601e-05
14.000  19.750  1.1556e-04
14.000  20.000  1.7259e-04
14.000  20.250  2.5934e-04
14.000  20.500  3.8979e-04
14.000  20.750  5.8255e-04
14.000  21.000  8.6272e-04
14.000  21.250  1.2542e-03
14.000  21.500  1.7774e-03
14.000  21.750  2.3426e-03
14.000  22.000  2.6860e-03
14.000  22.250  2.6592e-03
14.000  22.500  2.6585e-03
14.000  22.750  3.1993e-03
14.000  23.000  4.3100e-03
14.000  23.250  5.8129e-03
14.000  23.500  7.8209e-03
14.000  23.750  1.0255e-02
14.000  24.000  1.3102e-02
