InwC 1064.34A  relative to Inci 1215.00A scaled to 1215A.
Hden   Phi(H)  Eq_Width (A)
 7.000	17.000	6.3132e-02
 7.000	17.250	7.2432e-02
 7.000	17.500	7.5474e-02
 7.000	17.750	7.7054e-02
 7.000	18.000	7.7092e-02
 7.000	18.250	7.7143e-02
 7.000	18.500	7.7152e-02
 7.000	18.750	7.7162e-02
 7.000	19.000	7.7171e-02
 7.000	19.250	7.7178e-02
 7.000	19.500	7.7181e-02
 7.000	19.750	7.7182e-02
 7.000	20.000	7.7182e-02
 7.000	20.250	7.7182e-02
 7.000	20.500	7.7183e-02
 7.000	20.750	7.7183e-02
 7.000	21.000	7.7183e-02
 7.000	21.250	7.7183e-02
 7.000	21.500	7.7183e-02
 7.000	21.750	7.7184e-02
 7.000	22.000	7.7184e-02
 7.000	22.250	7.7184e-02
 7.000	22.500	7.7185e-02
 7.000	22.750	7.7193e-02
 7.000	23.000	7.7186e-02
 7.000	23.250	7.7187e-02
 7.000	23.500	7.7187e-02
 7.000	23.750	7.7187e-02
 7.000	24.000	7.7188e-02
 7.250	17.000	4.1487e-02
 7.250	17.250	6.2631e-02
 7.250	17.500	7.2453e-02
 7.250	17.750	7.5495e-02
 7.250	18.000	7.7055e-02
 7.250	18.250	7.7091e-02
 7.250	18.500	7.7144e-02
 7.250	18.750	7.7152e-02
 7.250	19.000	7.7162e-02
 7.250	19.250	7.7171e-02
 7.250	19.500	7.7178e-02
 7.250	19.750	7.7180e-02
 7.250	20.000	7.7181e-02
 7.250	20.250	7.7182e-02
 7.250	20.500	7.7182e-02
 7.250	20.750	7.7182e-02
 7.250	21.000	7.7183e-02
 7.250	21.250	7.7183e-02
 7.250	21.500	7.7183e-02
 7.250	21.750	7.7183e-02
 7.250	22.000	7.7183e-02
 7.250	22.250	7.7183e-02
 7.250	22.500	7.7183e-02
 7.250	22.750	7.7184e-02
 7.250	23.000	7.7184e-02
 7.250	23.250	7.7184e-02
 7.250	23.500	7.7184e-02
 7.250	23.750	7.7184e-02
 7.250	24.000	7.7184e-02
 7.500	17.000	2.5317e-02
 7.500	17.250	4.0448e-02
 7.500	17.500	6.2217e-02
 7.500	17.750	7.2472e-02
 7.500	18.000	7.5515e-02
 7.500	18.250	7.7055e-02
 7.500	18.500	7.7092e-02
 7.500	18.750	7.7143e-02
 7.500	19.000	7.7152e-02
 7.500	19.250	7.7162e-02
 7.500	19.500	7.7171e-02
 7.500	19.750	7.7178e-02
 7.500	20.000	7.7180e-02
 7.500	20.250	7.7182e-02
 7.500	20.500	7.7182e-02
 7.500	20.750	7.7182e-02
 7.500	21.000	7.7182e-02
 7.500	21.250	7.7182e-02
 7.500	21.500	7.7183e-02
 7.500	21.750	7.7183e-02
 7.500	22.000	7.7183e-02
 7.500	22.250	7.7183e-02
 7.500	22.500	7.7183e-02
 7.500	22.750	7.7183e-02
 7.500	23.000	7.7183e-02
 7.500	23.250	7.7183e-02
 7.500	23.500	7.7183e-02
 7.500	23.750	7.7183e-02
 7.500	24.000	7.7183e-02
 7.750	17.000	1.6180e-02
 7.750	17.250	2.4524e-02
 7.750	17.500	3.9662e-02
 7.750	17.750	6.1816e-02
 7.750	18.000	7.2488e-02
 7.750	18.250	7.5534e-02
 7.750	18.500	7.7055e-02
 7.750	18.750	7.7092e-02
 7.750	19.000	7.7143e-02
 7.750	19.250	7.7152e-02
 7.750	19.500	7.7162e-02
 7.750	19.750	7.7171e-02
 7.750	20.000	7.7178e-02
 7.750	20.250	7.7181e-02
 7.750	20.500	7.7182e-02
 7.750	20.750	7.7182e-02
 7.750	21.000	7.7182e-02
 7.750	21.250	7.7182e-02
 7.750	21.500	7.7183e-02
 7.750	21.750	7.7183e-02
 7.750	22.000	7.7183e-02
 7.750	22.250	7.7183e-02
 7.750	22.500	7.7183e-02
 7.750	22.750	7.7183e-02
 7.750	23.000	7.7183e-02
 7.750	23.250	7.7183e-02
 7.750	23.500	7.7183e-02
 7.750	23.750	7.7183e-02
 7.750	24.000	7.7183e-02
 8.000	17.000	1.1198e-02
 8.000	17.250	1.5531e-02
 8.000	17.500	2.3636e-02
 8.000	17.750	3.8620e-02
 8.000	18.000	6.1064e-02
 8.000	18.250	7.2493e-02
 8.000	18.500	7.5538e-02
 8.000	18.750	7.7055e-02
 8.000	19.000	7.7092e-02
 8.000	19.250	7.7144e-02
 8.000	19.500	7.7152e-02
 8.000	19.750	7.7162e-02
 8.000	20.000	7.7171e-02
 8.000	20.250	7.7178e-02
 8.000	20.500	7.7180e-02
 8.000	20.750	7.7182e-02
 8.000	21.000	7.7182e-02
 8.000	21.250	7.7182e-02
 8.000	21.500	7.7182e-02
 8.000	21.750	7.7182e-02
 8.000	22.000	7.7183e-02
 8.000	22.250	7.7183e-02
 8.000	22.500	7.7183e-02
 8.000	22.750	7.7183e-02
 8.000	23.000	7.7183e-02
 8.000	23.250	7.7183e-02
 8.000	23.500	7.7183e-02
 8.000	23.750	7.7183e-02
 8.000	24.000	7.7183e-02
 8.250	17.000	8.6834e-03
 8.250	17.250	1.0837e-02
 8.250	17.500	1.5092e-02
 8.250	17.750	2.3132e-02
 8.250	18.000	3.8147e-02
 8.250	18.250	6.0770e-02
 8.250	18.500	7.2508e-02
 8.250	18.750	7.5558e-02
 8.250	19.000	7.7055e-02
 8.250	19.250	7.7092e-02
 8.250	19.500	7.7144e-02
 8.250	19.750	7.7152e-02
 8.250	20.000	7.7162e-02
 8.250	20.250	7.7171e-02
 8.250	20.500	7.7178e-02
 8.250	20.750	7.7180e-02
 8.250	21.000	7.7181e-02
 8.250	21.250	7.7182e-02
 8.250	21.500	7.7182e-02
 8.250	21.750	7.7182e-02
 8.250	22.000	7.7183e-02
 8.250	22.250	7.7182e-02
 8.250	22.500	7.7182e-02
 8.250	22.750	7.7183e-02
 8.250	23.000	7.7183e-02
 8.250	23.250	7.7183e-02
 8.250	23.500	7.7183e-02
 8.250	23.750	7.7183e-02
 8.250	24.000	7.7183e-02
 8.500	17.000	7.4264e-03
 8.500	17.250	8.3954e-03
 8.500	17.500	1.0532e-02
 8.500	17.750	1.4721e-02
 8.500	18.000	2.2808e-02
 8.500	18.250	3.8265e-02
 8.500	18.500	6.1037e-02
 8.500	18.750	7.2516e-02
 8.500	19.000	7.5579e-02
 8.500	19.250	7.7055e-02
 8.500	19.500	7.7093e-02
 8.500	19.750	7.7143e-02
 8.500	20.000	7.7152e-02
 8.500	20.250	7.7162e-02
 8.500	20.500	7.7171e-02
 8.500	20.750	7.7178e-02
 8.500	21.000	7.7180e-02
 8.500	21.250	7.7182e-02
 8.500	21.500	7.7182e-02
 8.500	21.750	7.7182e-02
 8.500	22.000	7.7182e-02
 8.500	22.250	7.7182e-02
 8.500	22.500	7.7182e-02
 8.500	22.750	7.7183e-02
 8.500	23.000	7.7182e-02
 8.500	23.250	7.7183e-02
 8.500	23.500	7.7182e-02
 8.500	23.750	7.7182e-02
 8.500	24.000	7.7183e-02
 8.750	17.000	6.8683e-03
 8.750	17.250	7.1704e-03
 8.750	17.500	8.1521e-03
 8.750	17.750	1.0277e-02
 8.750	18.000	1.4580e-02
 8.750	18.250	2.3106e-02
 8.750	18.500	3.9822e-02
 8.750	18.750	6.2634e-02
 8.750	19.000	7.2526e-02
 8.750	19.250	7.5599e-02
 8.750	19.500	7.7056e-02
 8.750	19.750	7.7093e-02
 8.750	20.000	7.7143e-02
 8.750	20.250	7.7152e-02
 8.750	20.500	7.7162e-02
 8.750	20.750	7.7171e-02
 8.750	21.000	7.7178e-02
 8.750	21.250	7.7180e-02
 8.750	21.500	7.7182e-02
 8.750	21.750	7.7182e-02
 8.750	22.000	7.7182e-02
 8.750	22.250	7.7182e-02
 8.750	22.500	7.7182e-02
 8.750	22.750	7.7183e-02
 8.750	23.000	7.7183e-02
 8.750	23.250	7.7183e-02
 8.750	23.500	7.7183e-02
 8.750	23.750	7.7183e-02
 8.750	24.000	7.7183e-02
 9.000	17.000	6.7223e-03
 9.000	17.250	6.6147e-03
 9.000	17.500	6.9532e-03
 9.000	17.750	7.9769e-03
 9.000	18.000	1.0227e-02
 9.000	18.250	1.4925e-02
 9.000	18.500	2.4657e-02
 9.000	18.750	4.3315e-02
 9.000	19.000	6.5456e-02
 9.000	19.250	7.2533e-02
 9.000	19.500	7.5615e-02
 9.000	19.750	7.7055e-02
 9.000	20.000	7.7093e-02
 9.000	20.250	7.7143e-02
 9.000	20.500	7.7152e-02
 9.000	20.750	7.7162e-02
 9.000	21.000	7.7171e-02
 9.000	21.250	7.7178e-02
 9.000	21.500	7.7181e-02
 9.000	21.750	7.7182e-02
 9.000	22.000	7.7182e-02
 9.000	22.250	7.7182e-02
 9.000	22.500	7.7182e-02
 9.000	22.750	7.7182e-02
 9.000	23.000	7.7183e-02
 9.000	23.250	7.7183e-02
 9.000	23.500	7.7183e-02
 9.000	23.750	7.7182e-02
 9.000	24.000	7.7182e-02
 9.250	17.000	6.8297e-03
 9.250	17.250	6.4525e-03
 9.250	17.500	6.4058e-03
 9.250	17.750	6.8388e-03
 9.250	18.000	8.1339e-03
 9.250	18.250	1.0742e-02
 9.250	18.500	1.6224e-02
 9.250	18.750	2.7633e-02
 9.250	19.000	4.8711e-02
 9.250	19.250	6.8727e-02
 9.250	19.500	7.2537e-02
 9.250	19.750	7.5624e-02
 9.250	20.000	7.7054e-02
 9.250	20.250	7.7093e-02
 9.250	20.500	7.7143e-02
 9.250	20.750	7.7152e-02
 9.250	21.000	7.7162e-02
 9.250	21.250	7.7171e-02
 9.250	21.500	7.7170e-02
 9.250	21.750	7.7143e-02
 9.250	22.000	7.7141e-02
 9.250	22.250	7.7145e-02
 9.250	22.500	7.7182e-02
 9.250	22.750	7.7182e-02
 9.250	23.000	7.7182e-02
 9.250	23.250	7.7182e-02
 9.250	23.500	7.7182e-02
 9.250	23.750	7.7182e-02
 9.250	24.000	7.7183e-02
 9.500	17.000	7.1105e-03
 9.500	17.250	6.5393e-03
 9.500	17.500	6.2509e-03
 9.500	17.750	6.3779e-03
 9.500	18.000	7.0959e-03
 9.500	18.250	8.6479e-03
 9.500	18.500	1.1836e-02
 9.500	18.750	1.8486e-02
 9.500	19.000	3.2262e-02
 9.500	19.250	5.5267e-02
 9.500	19.500	7.0302e-02
 9.500	19.750	7.2544e-02
 9.500	20.000	7.5625e-02
 9.500	20.250	7.7052e-02
 9.500	20.500	7.7093e-02
 9.500	20.750	7.7142e-02
 9.500	21.000	7.7141e-02
 9.500	21.250	7.7130e-02
 9.500	21.500	7.7131e-02
 9.500	21.750	7.7132e-02
 9.500	22.000	7.7119e-02
 9.500	22.250	7.7108e-02
 9.500	22.500	7.7112e-02
 9.500	22.750	7.7113e-02
 9.500	23.000	7.7112e-02
 9.500	23.250	7.7111e-02
 9.500	23.500	7.7135e-02
 9.500	23.750	7.7135e-02
 9.500	24.000	7.7135e-02
 9.750	17.000	7.4861e-03
 9.750	17.250	6.7792e-03
 9.750	17.500	6.3243e-03
 9.750	17.750	6.2547e-03
 9.750	18.000	6.6670e-03
 9.750	18.250	7.6814e-03
 9.750	18.500	9.7005e-03
 9.750	18.750	1.3733e-02
 9.750	19.000	2.2080e-02
 9.750	19.250	3.8860e-02
 9.750	19.500	6.1873e-02
 9.750	19.750	7.0508e-02
 9.750	20.000	7.2572e-02
 9.750	20.250	7.5618e-02
 9.750	20.500	7.7049e-02
 9.750	20.750	7.7092e-02
 9.750	21.000	7.7143e-02
 9.750	21.250	7.7149e-02
 9.750	21.500	7.7149e-02
 9.750	21.750	7.7134e-02
 9.750	22.000	7.7136e-02
 9.750	22.250	7.7128e-02
 9.750	22.500	7.7115e-02
 9.750	22.750	7.7109e-02
 9.750	23.000	7.7111e-02
 9.750	23.250	7.7112e-02
 9.750	23.500	7.7112e-02
 9.750	23.750	7.7112e-02
 9.750	24.000	7.7113e-02
10.000	17.000	7.9034e-03
10.000	17.250	7.0990e-03
10.000	17.500	6.5056e-03
10.000	17.750	6.2926e-03
10.000	18.000	6.5919e-03
10.000	18.250	7.3291e-03
10.000	18.500	8.7303e-03
10.000	18.750	1.1457e-02
10.000	19.000	1.6859e-02
10.000	19.250	2.8299e-02
10.000	19.500	4.9854e-02
10.000	19.750	6.7082e-02
10.000	20.000	7.0603e-02
10.000	20.250	7.2604e-02
10.000	20.500	7.5620e-02
10.000	20.750	7.7043e-02
10.000	21.000	7.7091e-02
10.000	21.250	7.7144e-02
10.000	21.500	7.7151e-02
10.000	21.750	7.7158e-02
10.000	22.000	7.7149e-02
10.000	22.250	7.7138e-02
10.000	22.500	7.7134e-02
10.000	22.750	7.7125e-02
10.000	23.000	7.7117e-02
10.000	23.250	7.7112e-02
10.000	23.500	7.7109e-02
10.000	23.750	7.7109e-02
10.000	24.000	7.7109e-02
10.250	17.000	8.3123e-03
10.250	17.250	7.4535e-03
10.250	17.500	6.7863e-03
10.250	17.750	6.4988e-03
10.250	18.000	6.7288e-03
10.250	18.250	7.3402e-03
10.250	18.500	8.4320e-03
10.250	18.750	1.0497e-02
10.250	19.000	1.4505e-02
10.250	19.250	2.2085e-02
10.250	19.500	3.6379e-02
10.250	19.750	5.7221e-02
10.250	20.000	6.8543e-02
10.250	20.250	7.0674e-02
10.250	20.500	7.2650e-02
10.250	20.750	7.5653e-02
10.250	21.000	7.7036e-02
10.250	21.250	7.7090e-02
10.250	21.500	7.7144e-02
10.250	21.750	7.7152e-02
10.250	22.000	7.7161e-02
10.250	22.250	7.7164e-02
10.250	22.500	7.7139e-02
10.250	22.750	7.7138e-02
10.250	23.000	7.7133e-02
10.250	23.250	7.7126e-02
10.250	23.500	7.7121e-02
10.250	23.750	7.7118e-02
10.250	24.000	7.7117e-02
10.500	17.000	8.6427e-03
10.500	17.250	7.7878e-03
10.500	17.500	7.0945e-03
10.500	17.750	6.7883e-03
10.500	18.000	6.9692e-03
10.500	18.250	7.5493e-03
10.500	18.500	8.4638e-03
10.500	18.750	9.9342e-03
10.500	19.000	1.2345e-02
10.500	19.250	1.6684e-02
10.500	19.500	2.5168e-02
10.500	19.750	4.1309e-02
10.500	20.000	6.1785e-02
10.500	20.250	6.9168e-02
10.500	20.500	7.0722e-02
10.500	20.750	7.2707e-02
10.500	21.000	7.5733e-02
10.500	21.250	7.7027e-02
10.500	21.500	7.7086e-02
10.500	21.750	7.7143e-02
10.500	22.000	7.7152e-02
10.500	22.250	7.7162e-02
10.500	22.500	7.7169e-02
10.500	22.750	7.7146e-02
10.500	23.000	7.7140e-02
10.500	23.250	7.7138e-02
10.500	23.500	7.7134e-02
10.500	23.750	7.7130e-02
10.500	24.000	7.7128e-02
10.750	17.000	8.8440e-03
10.750	17.250	8.0426e-03
10.750	17.500	7.3689e-03
10.750	17.750	7.0889e-03
10.750	18.000	7.2416e-03
10.750	18.250	7.7007e-03
10.750	18.500	8.4230e-03
10.750	18.750	9.3294e-03
10.750	19.000	1.0744e-02
10.750	19.250	1.3329e-02
10.750	19.500	1.8285e-02
10.750	19.750	2.7952e-02
10.750	20.000	4.5554e-02
10.750	20.250	6.4857e-02
10.750	20.500	6.9305e-02
10.750	20.750	7.0805e-02
10.750	21.000	7.2809e-02
10.750	21.250	7.5900e-02
10.750	21.500	7.7016e-02
10.750	21.750	7.7082e-02
10.750	22.000	7.7138e-02
10.750	22.250	7.7152e-02
10.750	22.500	7.7162e-02
10.750	22.750	7.7170e-02
10.750	23.000	7.7165e-02
10.750	23.250	7.7141e-02
10.750	23.500	7.7140e-02
10.750	23.750	7.7138e-02
10.750	24.000	7.7136e-02
11.000	17.000	8.8086e-03
11.000	17.250	8.1594e-03
11.000	17.500	7.5464e-03
11.000	17.750	7.2986e-03
11.000	18.000	7.4402e-03
11.000	18.250	7.7695e-03
11.000	18.500	8.1993e-03
11.000	18.750	8.7893e-03
11.000	19.000	9.6789e-03
11.000	19.250	1.1245e-02
11.000	19.500	1.4160e-02
11.000	19.750	1.9691e-02
11.000	20.000	3.0337e-02
11.000	20.250	4.8926e-02
11.000	20.500	6.6460e-02
11.000	20.750	6.9260e-02
11.000	21.000	7.0867e-02
11.000	21.250	7.3008e-02
11.000	21.500	7.6199e-02
11.000	21.750	7.7001e-02
11.000	22.000	7.7077e-02
11.000	22.250	7.7138e-02
11.000	22.500	7.7151e-02
11.000	22.750	7.7162e-02
11.000	23.000	7.7171e-02
11.000	23.250	7.7174e-02
11.000	23.500	7.7147e-02
11.000	23.750	7.7142e-02
11.000	24.000	7.7141e-02
11.250	17.000	8.4333e-03
11.250	17.250	8.0419e-03
11.250	17.500	7.5441e-03
11.250	17.750	7.3425e-03
11.250	18.000	7.4811e-03
11.250	18.250	7.7109e-03
11.250	18.500	7.9435e-03
11.250	18.750	8.3123e-03
11.250	19.000	8.9287e-03
11.250	19.250	9.9098e-03
11.250	19.500	1.1637e-02
11.250	19.750	1.4820e-02
11.250	20.000	2.0818e-02
11.250	20.250	3.2233e-02
11.250	20.500	5.1445e-02
11.250	20.750	6.6798e-02
11.250	21.000	6.9292e-02
11.250	21.250	7.0994e-02
11.250	21.500	7.3401e-02
11.250	21.750	7.6566e-02
11.250	22.000	7.6982e-02
11.250	22.250	7.7071e-02
11.250	22.500	7.7130e-02
11.250	22.750	7.7151e-02
11.250	23.000	7.7161e-02
11.250	23.250	7.7171e-02
11.250	23.500	7.7177e-02
11.250	23.750	7.7166e-02
11.250	24.000	7.7144e-02
11.500	17.000	7.6347e-03
11.500	17.250	7.6040e-03
11.500	17.500	7.2866e-03
11.500	17.750	7.1529e-03
11.500	18.000	7.2951e-03
11.500	18.250	7.4830e-03
11.500	18.500	7.6660e-03
11.500	18.750	7.9137e-03
11.500	19.000	8.3171e-03
11.500	19.250	8.9827e-03
11.500	19.500	1.0039e-02
11.500	19.750	1.1889e-02
11.500	20.000	1.5271e-02
11.500	20.250	2.1612e-02
11.500	20.500	3.3575e-02
11.500	20.750	5.3322e-02
11.500	21.000	6.6173e-02
11.500	21.250	6.9336e-02
11.500	21.500	7.1269e-02
11.500	21.750	7.4091e-02
11.500	22.000	7.6738e-02
11.500	22.250	7.6960e-02
11.500	22.500	7.7063e-02
11.500	22.750	7.7131e-02
11.500	23.000	7.7150e-02
11.500	23.250	7.7161e-02
11.500	23.500	7.7171e-02
11.500	23.750	7.7178e-02
11.500	24.000	7.7176e-02
11.750	17.000	6.3589e-03
11.750	17.250	6.7259e-03
11.750	17.500	6.6873e-03
11.750	17.750	6.6881e-03
11.750	18.000	6.8954e-03
11.750	18.250	7.1270e-03
11.750	18.500	7.3182e-03
11.750	18.750	7.5081e-03
11.750	19.000	7.7761e-03
11.750	19.250	8.2248e-03
11.750	19.500	8.9408e-03
11.750	19.750	1.0052e-02
11.750	20.000	1.1988e-02
11.750	20.250	1.5526e-02
11.750	20.500	2.2086e-02
11.750	20.750	3.4410e-02
11.750	21.000	5.4770e-02
11.750	21.250	6.6197e-02
11.750	21.500	6.9455e-02
11.750	21.750	7.1713e-02
11.750	22.000	7.4924e-02
11.750	22.250	7.6695e-02
11.750	22.500	7.6930e-02
11.750	22.750	7.7051e-02
11.750	23.000	7.7128e-02
11.750	23.250	7.7149e-02
11.750	23.500	7.7161e-02
11.750	23.750	7.7171e-02
11.750	24.000	7.7178e-02
12.000	17.000	4.7259e-03
12.000	17.250	5.4047e-03
12.000	17.500	5.6976e-03
12.000	17.750	5.9520e-03
12.000	18.000	6.3117e-03
12.000	18.250	6.5951e-03
12.000	18.500	6.7804e-03
12.000	18.750	6.9645e-03
12.000	19.000	7.2086e-03
12.000	19.250	7.5503e-03
12.000	19.500	8.0582e-03
12.000	19.750	8.8168e-03
12.000	20.000	9.9703e-03
12.000	20.250	1.1953e-02
12.000	20.500	1.5548e-02
12.000	20.750	2.2241e-02
12.000	21.000	3.4823e-02
12.000	21.250	5.6153e-02
12.000	21.500	6.6547e-02
12.000	21.750	6.9699e-02
12.000	22.000	7.2311e-02
12.000	22.250	7.5598e-02
12.000	22.500	7.6647e-02
12.000	22.750	7.6902e-02
12.000	23.000	7.7036e-02
12.000	23.250	7.7123e-02
12.000	23.500	7.7148e-02
12.000	23.750	7.7160e-02
12.000	24.000	7.7170e-02
12.250	17.000	3.1176e-03
12.250	17.250	3.8809e-03
12.250	17.500	4.4547e-03
12.250	17.750	5.0007e-03
12.250	18.000	5.4688e-03
12.250	18.250	5.7407e-03
12.250	18.500	5.9556e-03
12.250	18.750	6.2217e-03
12.250	19.000	6.5320e-03
12.250	19.250	6.8839e-03
12.250	19.500	7.2979e-03
12.250	19.750	7.8519e-03
12.250	20.000	8.6295e-03
12.250	20.250	9.7950e-03
12.250	20.500	1.1781e-02
12.250	20.750	1.5391e-02
12.250	21.000	2.2193e-02
12.250	21.250	3.5184e-02
12.250	21.500	5.7200e-02
12.250	21.750	6.6842e-02
12.250	22.000	7.0048e-02
12.250	22.250	7.3103e-02
12.250	22.500	7.5918e-02
12.250	22.750	7.6607e-02
12.250	23.000	7.6873e-02
12.250	23.250	7.7018e-02
12.250	23.500	7.7117e-02
12.250	23.750	7.7147e-02
12.250	24.000	7.7160e-02
12.500	17.000	1.9916e-03
12.500	17.250	2.6670e-03
12.500	17.500	3.3269e-03
12.500	17.750	3.8803e-03
12.500	18.000	4.2687e-03
12.500	18.250	4.5757e-03
12.500	18.500	4.9068e-03
12.500	18.750	5.2947e-03
12.500	19.000	5.7135e-03
12.500	19.250	6.1378e-03
12.500	19.500	6.5666e-03
12.500	19.750	7.0281e-03
12.500	20.000	7.6047e-03
12.500	20.250	8.3816e-03
12.500	20.500	9.5205e-03
12.500	20.750	1.1488e-02
12.500	21.000	1.5104e-02
12.500	21.250	2.1993e-02
12.500	21.500	3.5388e-02
12.500	21.750	5.9096e-02
12.500	22.000	6.7265e-02
12.500	22.250	7.0538e-02
12.500	22.500	7.3875e-02
12.500	22.750	7.6049e-02
12.500	23.000	7.6573e-02
12.500	23.250	7.6843e-02
12.500	23.500	7.7000e-02
12.500	23.750	7.7108e-02
12.500	24.000	7.7145e-02
12.750	17.000	1.3434e-03
12.750	17.250	1.8383e-03
12.750	17.500	2.2677e-03
12.750	17.750	2.6182e-03
12.750	18.000	2.9635e-03
12.750	18.250	3.3486e-03
12.750	18.500	3.7710e-03
12.750	18.750	4.2427e-03
12.750	19.000	4.7598e-03
12.750	19.250	5.2807e-03
12.750	19.500	5.7769e-03
12.750	19.750	6.2506e-03
12.750	20.000	6.7354e-03
12.750	20.250	7.3114e-03
12.750	20.500	8.0653e-03
12.750	20.750	9.1754e-03
12.750	21.000	1.1110e-02
12.750	21.250	1.4769e-02
12.750	21.500	2.1807e-02
12.750	21.750	3.6289e-02
12.750	22.000	6.1294e-02
12.750	22.250	6.7686e-02
12.750	22.500	7.1189e-02
12.750	22.750	7.4358e-02
12.750	23.000	7.6073e-02
12.750	23.250	7.6547e-02
12.750	23.500	7.6821e-02
12.750	23.750	7.6984e-02
12.750	24.000	7.7098e-02
13.000	17.000	8.4214e-04
13.000	17.250	1.1612e-03
13.000	17.500	1.4106e-03
13.000	17.750	1.6328e-03
13.000	18.000	1.9196e-03
13.000	18.250	2.2727e-03
13.000	18.500	2.6900e-03
13.000	18.750	3.1742e-03
13.000	19.000	3.7267e-03
13.000	19.250	4.3137e-03
13.000	19.500	4.8870e-03
13.000	19.750	5.4226e-03
13.000	20.000	5.9142e-03
13.000	20.250	6.4022e-03
13.000	20.500	6.9725e-03
13.000	20.750	7.6850e-03
13.000	21.000	8.7560e-03
13.000	21.250	1.0701e-02
13.000	21.500	1.4405e-02
13.000	21.750	2.1947e-02
13.000	22.000	3.8020e-02
13.000	22.250	6.3097e-02
13.000	22.500	6.8183e-02
13.000	22.750	7.1668e-02
13.000	23.000	7.4552e-02
13.000	23.250	7.6070e-02
13.000	23.500	7.6527e-02
13.000	23.750	7.6801e-02
13.000	24.000	7.6965e-02
13.250	17.000	5.3827e-04
13.250	17.250	7.3926e-04
13.250	17.500	9.0724e-04
13.250	17.750	1.0277e-03
13.250	18.000	1.2033e-03
13.250	18.250	1.4610e-03
13.250	18.500	1.7970e-03
13.250	18.750	2.2157e-03
13.250	19.000	2.7234e-03
13.250	19.250	3.3061e-03
13.250	19.500	3.9203e-03
13.250	19.750	4.5231e-03
13.250	20.000	5.0723e-03
13.250	20.250	5.5689e-03
13.250	20.500	6.0444e-03
13.250	20.750	6.5710e-03
13.250	21.000	7.2477e-03
13.250	21.250	8.2933e-03
13.250	21.500	1.0250e-02
13.250	21.750	1.3999e-02
13.250	22.000	2.2303e-02
13.250	22.250	4.0306e-02
13.250	22.500	6.3901e-02
13.250	22.750	6.8213e-02
13.250	23.000	7.1682e-02
13.250	23.250	7.4583e-02
13.250	23.500	7.6055e-02
13.250	23.750	7.6506e-02
13.250	24.000	7.6772e-02
13.500	17.000	3.5959e-04
13.500	17.250	4.8049e-04
13.500	17.500	5.8444e-04
13.500	17.750	6.5860e-04
13.500	18.000	7.5951e-04
13.500	18.250	9.2140e-04
13.500	18.500	1.1531e-03
13.500	18.750	1.4621e-03
13.500	19.000	1.8664e-03
13.500	19.250	2.3653e-03
13.500	19.500	2.9391e-03
13.500	19.750	3.5448e-03
13.500	20.000	4.1369e-03
13.500	20.250	4.6824e-03
13.500	20.500	5.1640e-03
13.500	20.750	5.6187e-03
13.500	21.000	6.1143e-03
13.500	21.250	6.7402e-03
13.500	21.500	7.7854e-03
13.500	21.750	9.6710e-03
13.500	22.000	1.3633e-02
13.500	22.250	2.3084e-02
13.500	22.500	4.4234e-02
13.500	22.750	6.4379e-02
13.500	23.000	6.8314e-02
13.500	23.250	7.1439e-02
13.500	23.500	7.4451e-02
13.500	23.750	7.6013e-02
13.500	24.000	7.6464e-02
13.750	17.000	2.5185e-04
13.750	17.250	3.2815e-04
13.750	17.500	3.9218e-04
13.750	17.750	4.4041e-04
13.750	18.000	4.9745e-04
13.750	18.250	5.9144e-04
13.750	18.500	7.3407e-04
13.750	18.750	9.3778e-04
13.750	19.000	1.2190e-03
13.750	19.250	1.5947e-03
13.750	19.500	2.0639e-03
13.750	19.750	2.6071e-03
13.750	20.000	3.1849e-03
13.750	20.250	3.7500e-03
13.750	20.500	4.2733e-03
13.750	20.750	4.7340e-03
13.750	21.000	5.1549e-03
13.750	21.250	5.6158e-03
13.750	21.500	6.2277e-03
13.750	21.750	7.1888e-03
13.750	22.000	9.1348e-03
13.750	22.250	1.3615e-02
13.750	22.500	2.4343e-02
13.750	22.750	4.8138e-02
13.750	23.000	6.4802e-02
13.750	23.250	6.8342e-02
13.750	23.500	7.1254e-02
13.750	23.750	7.4487e-02
13.750	24.000	7.5938e-02
14.000	17.000	1.8412e-04
14.000	17.250	2.3704e-04
14.000	17.500	2.7918e-04
14.000	17.750	3.0823e-04
14.000	18.000	3.4313e-04
14.000	18.250	3.9712e-04
14.000	18.500	4.8140e-04
14.000	18.750	6.0477e-04
14.000	19.000	7.8280e-04
14.000	19.250	1.0351e-03
14.000	19.500	1.3750e-03
14.000	19.750	1.8046e-03
14.000	20.000	2.3063e-03
14.000	20.250	2.8450e-03
14.000	20.500	3.3733e-03
14.000	20.750	3.8587e-03
14.000	21.000	4.2853e-03
14.000	21.250	4.6800e-03
14.000	21.500	5.1387e-03
14.000	21.750	5.6705e-03
14.000	22.000	6.6411e-03
14.000	22.250	8.8207e-03
14.000	22.500	1.4173e-02
14.000	22.750	2.7261e-02
14.000	23.000	5.2059e-02
14.000	23.250	6.5045e-02
14.000	23.500	6.8304e-02
14.000	23.750	7.1363e-02
14.000	24.000	7.4618e-02
