InwC 1035.92A  relative to Inci 1215.00A scaled to 1215A.
Hden   Phi(H)  Eq_Width (A)
 7.000	17.000	5.8504e-02
 7.000	17.250	7.2412e-02
 7.000	17.500	7.5429e-02
 7.000	17.750	7.7004e-02
 7.000	18.000	7.7041e-02
 7.000	18.250	7.7093e-02
 7.000	18.500	7.7102e-02
 7.000	18.750	7.7112e-02
 7.000	19.000	7.7121e-02
 7.000	19.250	7.7128e-02
 7.000	19.500	7.7130e-02
 7.000	19.750	7.7132e-02
 7.000	20.000	7.7132e-02
 7.000	20.250	7.7132e-02
 7.000	20.500	7.7133e-02
 7.000	20.750	7.7133e-02
 7.000	21.000	7.7133e-02
 7.000	21.250	7.7133e-02
 7.000	21.500	7.7133e-02
 7.000	21.750	7.7133e-02
 7.000	22.000	7.7134e-02
 7.000	22.250	7.7134e-02
 7.000	22.500	7.7135e-02
 7.000	22.750	7.7143e-02
 7.000	23.000	7.7136e-02
 7.000	23.250	7.7137e-02
 7.000	23.500	7.7137e-02
 7.000	23.750	7.7137e-02
 7.000	24.000	7.7138e-02
 7.250	17.000	3.7375e-02
 7.250	17.250	5.8287e-02
 7.250	17.500	7.2432e-02
 7.250	17.750	7.5450e-02
 7.250	18.000	7.7005e-02
 7.250	18.250	7.7041e-02
 7.250	18.500	7.7094e-02
 7.250	18.750	7.7102e-02
 7.250	19.000	7.7112e-02
 7.250	19.250	7.7121e-02
 7.250	19.500	7.7128e-02
 7.250	19.750	7.7130e-02
 7.250	20.000	7.7131e-02
 7.250	20.250	7.7132e-02
 7.250	20.500	7.7132e-02
 7.250	20.750	7.7132e-02
 7.250	21.000	7.7133e-02
 7.250	21.250	7.7132e-02
 7.250	21.500	7.7133e-02
 7.250	21.750	7.7133e-02
 7.250	22.000	7.7133e-02
 7.250	22.250	7.7133e-02
 7.250	22.500	7.7133e-02
 7.250	22.750	7.7133e-02
 7.250	23.000	7.7134e-02
 7.250	23.250	7.7134e-02
 7.250	23.500	7.7134e-02
 7.250	23.750	7.7134e-02
 7.250	24.000	7.7134e-02
 7.500	17.000	2.2390e-02
 7.500	17.250	3.6692e-02
 7.500	17.500	5.8121e-02
 7.500	17.750	7.2451e-02
 7.500	18.000	7.5470e-02
 7.500	18.250	7.7005e-02
 7.500	18.500	7.7042e-02
 7.500	18.750	7.7093e-02
 7.500	19.000	7.7102e-02
 7.500	19.250	7.7112e-02
 7.500	19.500	7.7121e-02
 7.500	19.750	7.7128e-02
 7.500	20.000	7.7130e-02
 7.500	20.250	7.7131e-02
 7.500	20.500	7.7132e-02
 7.500	20.750	7.7132e-02
 7.500	21.000	7.7132e-02
 7.500	21.250	7.7132e-02
 7.500	21.500	7.7133e-02
 7.500	21.750	7.7133e-02
 7.500	22.000	7.7132e-02
 7.500	22.250	7.7133e-02
 7.500	22.500	7.7133e-02
 7.500	22.750	7.7133e-02
 7.500	23.000	7.7133e-02
 7.500	23.250	7.7133e-02
 7.500	23.500	7.7133e-02
 7.500	23.750	7.7133e-02
 7.500	24.000	7.7133e-02
 7.750	17.000	1.3958e-02
 7.750	17.250	2.1850e-02
 7.750	17.500	3.6203e-02
 7.750	17.750	5.7977e-02
 7.750	18.000	7.2467e-02
 7.750	18.250	7.5489e-02
 7.750	18.500	7.7005e-02
 7.750	18.750	7.7042e-02
 7.750	19.000	7.7093e-02
 7.750	19.250	7.7102e-02
 7.750	19.500	7.7112e-02
 7.750	19.750	7.7121e-02
 7.750	20.000	7.7128e-02
 7.750	20.250	7.7130e-02
 7.750	20.500	7.7132e-02
 7.750	20.750	7.7132e-02
 7.750	21.000	7.7132e-02
 7.750	21.250	7.7132e-02
 7.750	21.500	7.7132e-02
 7.750	21.750	7.7132e-02
 7.750	22.000	7.7132e-02
 7.750	22.250	7.7133e-02
 7.750	22.500	7.7132e-02
 7.750	22.750	7.7132e-02
 7.750	23.000	7.7133e-02
 7.750	23.250	7.7133e-02
 7.750	23.500	7.7133e-02
 7.750	23.750	7.7133e-02
 7.750	24.000	7.7133e-02
 8.000	17.000	9.3352e-03
 8.000	17.250	1.3479e-02
 8.000	17.500	2.1194e-02
 8.000	17.750	3.5467e-02
 8.000	18.000	5.7500e-02
 8.000	18.250	7.2472e-02
 8.000	18.500	7.5493e-02
 8.000	18.750	7.7005e-02
 8.000	19.000	7.7042e-02
 8.000	19.250	7.7094e-02
 8.000	19.500	7.7102e-02
 8.000	19.750	7.7112e-02
 8.000	20.000	7.7121e-02
 8.000	20.250	7.7128e-02
 8.000	20.500	7.7130e-02
 8.000	20.750	7.7131e-02
 8.000	21.000	7.7132e-02
 8.000	21.250	7.7132e-02
 8.000	21.500	7.7132e-02
 8.000	21.750	7.7132e-02
 8.000	22.000	7.7132e-02
 8.000	22.250	7.7133e-02
 8.000	22.500	7.7132e-02
 8.000	22.750	7.7132e-02
 8.000	23.000	7.7132e-02
 8.000	23.250	7.7132e-02
 8.000	23.500	7.7132e-02
 8.000	23.750	7.7133e-02
 8.000	24.000	7.7133e-02
 8.250	17.000	6.9653e-03
 8.250	17.250	9.0865e-03
 8.250	17.500	1.3184e-02
 8.250	17.750	2.0890e-02
 8.250	18.000	3.5296e-02
 8.250	18.250	5.7582e-02
 8.250	18.500	7.2487e-02
 8.250	18.750	7.5513e-02
 8.250	19.000	7.7005e-02
 8.250	19.250	7.7042e-02
 8.250	19.500	7.7093e-02
 8.250	19.750	7.7102e-02
 8.250	20.000	7.7112e-02
 8.250	20.250	7.7121e-02
 8.250	20.500	7.7128e-02
 8.250	20.750	7.7130e-02
 8.250	21.000	7.7131e-02
 8.250	21.250	7.7132e-02
 8.250	21.500	7.7132e-02
 8.250	21.750	7.7132e-02
 8.250	22.000	7.7132e-02
 8.250	22.250	7.7132e-02
 8.250	22.500	7.7132e-02
 8.250	22.750	7.7133e-02
 8.250	23.000	7.7133e-02
 8.250	23.250	7.7133e-02
 8.250	23.500	7.7132e-02
 8.250	23.750	7.7133e-02
 8.250	24.000	7.7133e-02
 8.500	17.000	5.7398e-03
 8.500	17.250	6.7675e-03
 8.500	17.500	8.8838e-03
 8.500	17.750	1.2955e-02
 8.500	18.000	2.0775e-02
 8.500	18.250	3.5725e-02
 8.500	18.500	5.8274e-02
 8.500	18.750	7.2496e-02
 8.500	19.000	7.5534e-02
 8.500	19.250	7.7005e-02
 8.500	19.500	7.7043e-02
 8.500	19.750	7.7093e-02
 8.500	20.000	7.7102e-02
 8.500	20.250	7.7112e-02
 8.500	20.500	7.7121e-02
 8.500	20.750	7.7128e-02
 8.500	21.000	7.7130e-02
 8.500	21.250	7.7131e-02
 8.500	21.500	7.7132e-02
 8.500	21.750	7.7132e-02
 8.500	22.000	7.7132e-02
 8.500	22.250	7.7132e-02
 8.500	22.500	7.7132e-02
 8.500	22.750	7.7133e-02
 8.500	23.000	7.7132e-02
 8.500	23.250	7.7133e-02
 8.500	23.500	7.7132e-02
 8.500	23.750	7.7132e-02
 8.500	24.000	7.7133e-02
 8.750	17.000	5.1463e-03
 8.750	17.250	5.5645e-03
 8.750	17.500	6.6077e-03
 8.750	17.750	8.7323e-03
 8.750	18.000	1.2941e-02
 8.750	18.250	2.1245e-02
 8.750	18.500	3.7489e-02
 8.750	18.750	6.0266e-02
 8.750	19.000	7.2506e-02
 8.750	19.250	7.5554e-02
 8.750	19.500	7.7006e-02
 8.750	19.750	7.7043e-02
 8.750	20.000	7.7093e-02
 8.750	20.250	7.7102e-02
 8.750	20.500	7.7112e-02
 8.750	20.750	7.7121e-02
 8.750	21.000	7.7128e-02
 8.750	21.250	7.7130e-02
 8.750	21.500	7.7131e-02
 8.750	21.750	7.7132e-02
 8.750	22.000	7.7132e-02
 8.750	22.250	7.7132e-02
 8.750	22.500	7.7132e-02
 8.750	22.750	7.7132e-02
 8.750	23.000	7.7133e-02
 8.750	23.250	7.7133e-02
 8.750	23.500	7.7132e-02
 8.750	23.750	7.7132e-02
 8.750	24.000	7.7132e-02
 9.000	17.000	4.9212e-03
 9.000	17.250	4.9725e-03
 9.000	17.500	5.4229e-03
 9.000	17.750	6.5123e-03
 9.000	18.000	8.7681e-03
 9.000	18.250	1.3378e-02
 9.000	18.500	2.2882e-02
 9.000	18.750	4.1164e-02
 9.000	19.000	6.3726e-02
 9.000	19.250	7.2514e-02
 9.000	19.500	7.5570e-02
 9.000	19.750	7.7005e-02
 9.000	20.000	7.7043e-02
 9.000	20.250	7.7093e-02
 9.000	20.500	7.7102e-02
 9.000	20.750	7.7112e-02
 9.000	21.000	7.7121e-02
 9.000	21.250	7.7128e-02
 9.000	21.500	7.7130e-02
 9.000	21.750	7.7131e-02
 9.000	22.000	7.7132e-02
 9.000	22.250	7.7132e-02
 9.000	22.500	7.7132e-02
 9.000	22.750	7.7132e-02
 9.000	23.000	7.7132e-02
 9.000	23.250	7.7133e-02
 9.000	23.500	7.7132e-02
 9.000	23.750	7.7132e-02
 9.000	24.000	7.7132e-02
 9.250	17.000	4.9194e-03
 9.250	17.250	4.7356e-03
 9.250	17.500	4.8370e-03
 9.250	17.750	5.3716e-03
 9.250	18.000	6.6968e-03
 9.250	18.250	9.3002e-03
 9.250	18.500	1.4691e-02
 9.250	18.750	2.5891e-02
 9.250	19.000	4.6663e-02
 9.250	19.250	6.7740e-02
 9.250	19.500	7.2520e-02
 9.250	19.750	7.5580e-02
 9.250	20.000	7.7004e-02
 9.250	20.250	7.7043e-02
 9.250	20.500	7.7093e-02
 9.250	20.750	7.7102e-02
 9.250	21.000	7.7112e-02
 9.250	21.250	7.7121e-02
 9.250	21.500	7.7120e-02
 9.250	21.750	7.7093e-02
 9.250	22.000	7.7091e-02
 9.250	22.250	7.7094e-02
 9.250	22.500	7.7132e-02
 9.250	22.750	7.7132e-02
 9.250	23.000	7.7132e-02
 9.250	23.250	7.7132e-02
 9.250	23.500	7.7132e-02
 9.250	23.750	7.7132e-02
 9.250	24.000	7.7133e-02
 9.500	17.000	5.0669e-03
 9.500	17.250	4.7193e-03
 9.500	17.500	4.6049e-03
 9.500	17.750	4.8460e-03
 9.500	18.000	5.6212e-03
 9.500	18.250	7.2016e-03
 9.500	18.500	1.0369e-02
 9.500	18.750	1.6916e-02
 9.500	19.000	3.0477e-02
 9.500	19.250	5.3340e-02
 9.500	19.500	6.9952e-02
 9.500	19.750	7.2527e-02
 9.500	20.000	7.5581e-02
 9.500	20.250	7.7002e-02
 9.500	20.500	7.7043e-02
 9.500	20.750	7.7092e-02
 9.500	21.000	7.7091e-02
 9.500	21.250	7.7080e-02
 9.500	21.500	7.7081e-02
 9.500	21.750	7.7082e-02
 9.500	22.000	7.7069e-02
 9.500	22.250	7.7058e-02
 9.500	22.500	7.7062e-02
 9.500	22.750	7.7062e-02
 9.500	23.000	7.7062e-02
 9.500	23.250	7.7061e-02
 9.500	23.500	7.7084e-02
 9.500	23.750	7.7084e-02
 9.500	24.000	7.7084e-02
 9.750	17.000	5.2979e-03
 9.750	17.250	4.8374e-03
 9.750	17.500	4.5774e-03
 9.750	17.750	4.6330e-03
 9.750	18.000	5.1123e-03
 9.750	18.250	6.1591e-03
 9.750	18.500	8.1765e-03
 9.750	18.750	1.2152e-02
 9.750	19.000	2.0346e-02
 9.750	19.250	3.6882e-02
 9.750	19.500	6.0372e-02
 9.750	19.750	7.0527e-02
 9.750	20.000	7.2555e-02
 9.750	20.250	7.5574e-02
 9.750	20.500	7.6999e-02
 9.750	20.750	7.7042e-02
 9.750	21.000	7.7093e-02
 9.750	21.250	7.7098e-02
 9.750	21.500	7.7099e-02
 9.750	21.750	7.7084e-02
 9.750	22.000	7.7086e-02
 9.750	22.250	7.7078e-02
 9.750	22.500	7.7065e-02
 9.750	22.750	7.7058e-02
 9.750	23.000	7.7061e-02
 9.750	23.250	7.7062e-02
 9.750	23.500	7.7062e-02
 9.750	23.750	7.7062e-02
 9.750	24.000	7.7062e-02
10.000	17.000	5.5692e-03
10.000	17.250	5.0285e-03
10.000	17.500	4.6529e-03
10.000	17.750	4.5781e-03
10.000	18.000	4.9272e-03
10.000	18.250	5.6828e-03
10.000	18.500	7.0729e-03
10.000	18.750	9.7314e-03
10.000	19.000	1.4972e-02
10.000	19.250	2.6033e-02
10.000	19.500	4.7240e-02
10.000	19.750	6.6180e-02
10.000	20.000	7.0619e-02
10.000	20.250	7.2587e-02
10.000	20.500	7.5578e-02
10.000	20.750	7.6994e-02
10.000	21.000	7.7041e-02
10.000	21.250	7.7094e-02
10.000	21.500	7.7101e-02
10.000	21.750	7.7108e-02
10.000	22.000	7.7099e-02
10.000	22.250	7.7088e-02
10.000	22.500	7.7084e-02
10.000	22.750	7.7075e-02
10.000	23.000	7.7066e-02
10.000	23.250	7.7061e-02
10.000	23.500	7.7059e-02
10.000	23.750	7.7059e-02
10.000	24.000	7.7059e-02
10.250	17.000	5.8424e-03
10.250	17.250	5.2551e-03
10.250	17.500	4.8157e-03
10.250	17.750	4.6693e-03
10.250	18.000	4.9335e-03
10.250	18.250	5.5344e-03
10.250	18.500	6.5853e-03
10.250	18.750	8.5401e-03
10.250	19.000	1.2304e-02
10.250	19.250	1.9489e-02
10.250	19.500	3.3269e-02
10.250	19.750	5.4445e-02
10.250	20.000	6.8240e-02
10.250	20.250	7.0690e-02
10.250	20.500	7.2633e-02
10.250	20.750	7.5612e-02
10.250	21.000	7.6988e-02
10.250	21.250	7.7040e-02
10.250	21.500	7.7094e-02
10.250	21.750	7.7102e-02
10.250	22.000	7.7111e-02
10.250	22.250	7.7114e-02
10.250	22.500	7.7089e-02
10.250	22.750	7.7088e-02
10.250	23.000	7.7083e-02
10.250	23.250	7.7076e-02
10.250	23.500	7.7071e-02
10.250	23.750	7.7068e-02
10.250	24.000	7.7067e-02
10.500	17.000	6.0663e-03
10.500	17.250	5.4756e-03
10.500	17.500	5.0095e-03
10.500	17.750	4.8361e-03
10.500	18.000	5.0391e-03
10.500	18.250	5.5700e-03
10.500	18.500	6.4120e-03
10.500	18.750	7.7826e-03
10.500	19.000	1.0069e-02
10.500	19.250	1.4210e-02
10.500	19.500	2.2309e-02
10.500	19.750	3.7927e-02
10.500	20.000	5.9286e-02
10.500	20.250	6.9228e-02
10.500	20.500	7.0738e-02
10.500	20.750	7.2690e-02
10.500	21.000	7.5693e-02
10.500	21.250	7.6979e-02
10.500	21.500	7.7037e-02
10.500	21.750	7.7093e-02
10.500	22.000	7.7102e-02
10.500	22.250	7.7111e-02
10.500	22.500	7.7119e-02
10.500	22.750	7.7096e-02
10.500	23.000	7.7090e-02
10.500	23.250	7.7087e-02
10.500	23.500	7.7084e-02
10.500	23.750	7.7080e-02
10.500	24.000	7.7078e-02
10.750	17.000	6.2041e-03
10.750	17.250	5.6460e-03
10.750	17.500	5.1873e-03
10.750	17.750	5.0219e-03
10.750	18.000	5.1847e-03
10.750	18.250	5.5939e-03
10.750	18.500	6.2389e-03
10.750	18.750	7.0994e-03
10.750	19.000	8.4699e-03
10.750	19.250	1.0951e-02
10.750	19.500	1.5675e-02
10.750	19.750	2.4900e-02
10.750	20.000	4.2056e-02
10.750	20.250	6.2868e-02
10.750	20.500	6.9361e-02
10.750	20.750	7.0819e-02
10.750	21.000	7.2793e-02
10.750	21.250	7.5860e-02
10.750	21.500	7.6969e-02
10.750	21.750	7.7033e-02
10.750	22.000	7.7088e-02
10.750	22.250	7.7101e-02
10.750	22.500	7.7112e-02
10.750	22.750	7.7120e-02
10.750	23.000	7.7115e-02
10.750	23.250	7.7091e-02
10.750	23.500	7.7090e-02
10.750	23.750	7.7088e-02
10.750	24.000	7.7086e-02
11.000	17.000	6.1790e-03
11.000	17.250	5.7240e-03
11.000	17.500	5.3029e-03
11.000	17.750	5.1515e-03
11.000	18.000	5.2905e-03
11.000	18.250	5.5819e-03
11.000	18.500	5.9772e-03
11.000	18.750	6.5401e-03
11.000	19.000	7.4086e-03
11.000	19.250	8.9238e-03
11.000	19.500	1.1712e-02
11.000	19.750	1.6982e-02
11.000	20.000	2.7171e-02
11.000	20.250	4.5467e-02
11.000	20.500	6.5193e-02
11.000	20.750	6.9321e-02
11.000	21.000	7.0883e-02
11.000	21.250	7.2993e-02
11.000	21.500	7.6162e-02
11.000	21.750	7.6955e-02
11.000	22.000	7.7028e-02
11.000	22.250	7.7088e-02
11.000	22.500	7.7101e-02
11.000	22.750	7.7112e-02
11.000	23.000	7.7121e-02
11.000	23.250	7.7124e-02
11.000	23.500	7.7097e-02
11.000	23.750	7.7092e-02
11.000	24.000	7.7091e-02
11.250	17.000	5.9180e-03
11.250	17.250	5.6410e-03
11.250	17.500	5.2966e-03
11.250	17.750	5.1707e-03
11.250	18.000	5.2951e-03
11.250	18.250	5.4971e-03
11.250	18.500	5.7225e-03
11.250	18.750	6.0793e-03
11.250	19.000	6.6708e-03
11.250	19.250	7.6235e-03
11.250	19.500	9.2882e-03
11.250	19.750	1.2332e-02
11.250	20.000	1.8060e-02
11.250	20.250	2.9049e-02
11.250	20.500	4.8207e-02
11.250	20.750	6.6272e-02
11.250	21.000	6.9355e-02
11.250	21.250	7.1012e-02
11.250	21.500	7.3390e-02
11.250	21.750	7.6531e-02
11.250	22.000	7.6937e-02
11.250	22.250	7.7022e-02
11.250	22.500	7.7080e-02
11.250	22.750	7.7101e-02
11.250	23.000	7.7111e-02
11.250	23.250	7.7121e-02
11.250	23.500	7.7127e-02
11.250	23.750	7.7116e-02
11.250	24.000	7.7094e-02
11.500	17.000	5.3618e-03
11.500	17.250	5.3360e-03
11.500	17.500	5.1150e-03
11.500	17.750	5.0309e-03
11.500	18.000	5.1475e-03
11.500	18.250	5.3047e-03
11.500	18.500	5.4727e-03
11.500	18.750	5.7104e-03
11.500	19.000	6.0970e-03
11.500	19.250	6.7334e-03
11.500	19.500	7.7567e-03
11.500	19.750	9.5416e-03
11.500	20.000	1.2788e-02
11.500	20.250	1.8881e-02
11.500	20.500	3.0503e-02
11.500	20.750	5.0474e-02
11.500	21.000	6.6333e-02
11.500	21.250	6.9403e-02
11.500	21.500	7.1289e-02
11.500	21.750	7.4082e-02
11.500	22.000	7.6706e-02
11.500	22.250	7.6916e-02
11.500	22.500	7.7016e-02
11.500	22.750	7.7082e-02
11.500	23.000	7.7100e-02
11.500	23.250	7.7111e-02
11.500	23.500	7.7121e-02
11.500	23.750	7.7128e-02
11.500	24.000	7.7126e-02
11.750	17.000	4.4714e-03
11.750	17.250	4.7241e-03
11.750	17.500	4.6962e-03
11.750	17.750	4.7012e-03
11.750	18.000	4.8545e-03
11.750	18.250	5.0299e-03
11.750	18.500	5.1874e-03
11.750	18.750	5.3613e-03
11.750	19.000	5.6165e-03
11.750	19.250	6.0403e-03
11.750	19.500	6.7214e-03
11.750	19.750	7.7993e-03
11.750	20.000	9.6740e-03
11.750	20.250	1.3090e-02
11.750	20.500	1.9457e-02
11.750	20.750	3.1578e-02
11.750	21.000	5.2444e-02
11.750	21.250	6.6373e-02
11.750	21.500	6.9526e-02
11.750	21.750	7.1736e-02
11.750	22.000	7.4920e-02
11.750	22.250	7.6666e-02
11.750	22.500	7.6888e-02
11.750	22.750	7.7004e-02
11.750	23.000	7.7079e-02
11.750	23.250	7.7099e-02
11.750	23.500	7.7111e-02
11.750	23.750	7.7120e-02
11.750	24.000	7.7128e-02
12.000	17.000	3.3281e-03
12.000	17.250	3.8010e-03
12.000	17.500	4.0042e-03
12.000	17.750	4.1821e-03
12.000	18.000	4.4347e-03
12.000	18.250	4.6373e-03
12.000	18.500	4.7795e-03
12.000	18.750	4.9333e-03
12.000	19.000	5.1472e-03
12.000	19.250	5.4573e-03
12.000	19.500	5.9279e-03
12.000	19.750	6.6470e-03
12.000	20.000	7.7688e-03
12.000	20.250	9.7033e-03
12.000	20.500	1.3212e-02
12.000	20.750	1.9793e-02
12.000	21.000	3.2352e-02
12.000	21.250	5.4414e-02
12.000	21.500	6.6728e-02
12.000	21.750	6.9772e-02
12.000	22.000	7.2339e-02
12.000	22.250	7.5598e-02
12.000	22.500	7.6620e-02
12.000	22.750	7.6862e-02
12.000	23.000	7.6990e-02
12.000	23.250	7.7074e-02
12.000	23.500	7.7098e-02
12.000	23.750	7.7110e-02
12.000	24.000	7.7120e-02
12.250	17.000	2.1982e-03
12.250	17.250	2.7325e-03
12.250	17.500	3.1323e-03
12.250	17.750	3.5114e-03
12.250	18.000	3.8358e-03
12.250	18.250	4.0257e-03
12.250	18.500	4.1817e-03
12.250	18.750	4.3821e-03
12.250	19.000	4.6257e-03
12.250	19.250	4.9167e-03
12.250	19.500	5.2800e-03
12.250	19.750	5.7870e-03
12.250	20.000	6.5256e-03
12.250	20.250	7.6673e-03
12.250	20.500	9.6274e-03
12.250	20.750	1.3201e-02
12.250	21.000	1.9993e-02
12.250	21.250	3.3133e-02
12.250	21.500	5.5904e-02
12.250	21.750	6.7020e-02
12.250	22.000	7.0123e-02
12.250	22.250	7.3139e-02
12.250	22.500	7.5921e-02
12.250	22.750	7.6583e-02
12.250	23.000	7.6835e-02
12.250	23.250	7.6973e-02
12.250	23.500	7.7068e-02
12.250	23.750	7.7097e-02
12.250	24.000	7.7110e-02
12.500	17.000	1.4042e-03
12.500	17.250	1.8778e-03
12.500	17.500	2.3388e-03
12.500	17.750	2.7237e-03
12.500	18.000	2.9923e-03
12.500	18.250	3.2059e-03
12.500	18.500	3.4397e-03
12.500	18.750	3.7178e-03
12.500	19.000	4.0253e-03
12.500	19.250	4.3486e-03
12.500	19.500	4.6942e-03
12.500	19.750	5.0919e-03
12.500	20.000	5.6170e-03
12.500	20.250	6.3598e-03
12.500	20.500	7.4918e-03
12.500	20.750	9.4635e-03
12.500	21.000	1.3103e-02
12.500	21.250	2.0094e-02
12.500	21.500	3.3672e-02
12.500	21.750	5.8335e-02
12.500	22.000	6.7438e-02
12.500	22.250	7.0614e-02
12.500	22.500	7.3917e-02
12.500	22.750	7.6053e-02
12.500	23.000	7.6551e-02
12.500	23.250	7.6807e-02
12.500	23.500	7.6956e-02
12.500	23.750	7.7060e-02
12.500	24.000	7.7096e-02
12.750	17.000	9.4691e-04
12.750	17.250	1.2946e-03
12.750	17.500	1.5952e-03
12.750	17.750	1.8398e-03
12.750	18.000	2.0804e-03
12.750	18.250	2.3492e-03
12.750	18.500	2.6453e-03
12.750	18.750	2.9777e-03
12.750	19.000	3.3459e-03
12.750	19.250	3.7242e-03
12.750	19.500	4.0973e-03
12.750	19.750	4.4739e-03
12.750	20.000	4.8882e-03
12.750	20.250	5.4141e-03
12.750	20.500	6.1443e-03
12.750	20.750	7.2672e-03
12.750	21.000	9.2441e-03
12.750	21.250	1.2989e-02
12.750	21.500	2.0161e-02
12.750	21.750	3.4956e-02
12.750	22.000	6.1025e-02
12.750	22.250	6.7851e-02
12.750	22.500	7.1272e-02
12.750	22.750	7.4405e-02
12.750	23.000	7.6079e-02
12.750	23.250	7.6527e-02
12.750	23.500	7.6786e-02
12.750	23.750	7.6941e-02
12.750	24.000	7.7050e-02
13.000	17.000	5.9391e-04
13.000	17.250	8.1885e-04
13.000	17.500	9.9407e-04
13.000	17.750	1.1500e-03
13.000	18.000	1.3510e-03
13.000	18.250	1.5986e-03
13.000	18.500	1.8911e-03
13.000	18.750	2.2310e-03
13.000	19.000	2.6202e-03
13.000	19.250	3.0371e-03
13.000	19.500	3.4514e-03
13.000	19.750	3.8514e-03
13.000	20.000	4.2399e-03
13.000	20.250	4.6565e-03
13.000	20.500	5.1798e-03
13.000	20.750	5.8853e-03
13.000	21.000	6.9938e-03
13.000	21.250	9.0158e-03
13.000	21.500	1.2827e-02
13.000	21.750	2.0600e-02
13.000	22.000	3.7013e-02
13.000	22.250	6.3201e-02
13.000	22.500	6.8341e-02
13.000	22.750	7.1759e-02
13.000	23.000	7.4600e-02
13.000	23.250	7.6077e-02
13.000	23.500	7.6508e-02
13.000	23.750	7.6768e-02
13.000	24.000	7.6923e-02
13.250	17.000	3.7984e-04
13.250	17.250	5.2189e-04
13.250	17.500	6.4049e-04
13.250	17.750	7.2519e-04
13.250	18.000	8.4872e-04
13.250	18.250	1.0302e-03
13.250	18.500	1.2667e-03
13.250	18.750	1.5613e-03
13.250	19.000	1.9184e-03
13.250	19.250	2.3291e-03
13.250	19.500	2.7650e-03
13.250	19.750	3.1998e-03
13.250	20.000	3.6088e-03
13.250	20.250	4.0003e-03
13.250	20.500	4.4081e-03
13.250	20.750	4.9021e-03
13.250	21.000	5.5896e-03
13.250	21.250	6.6959e-03
13.250	21.500	8.7364e-03
13.250	21.750	1.2666e-02
13.250	22.000	2.1230e-02
13.250	22.250	3.9563e-02
13.250	22.500	6.4167e-02
13.250	22.750	6.8367e-02
13.250	23.000	7.1776e-02
13.250	23.250	7.4631e-02
13.250	23.500	7.6061e-02
13.250	23.750	7.6489e-02
13.250	24.000	7.6740e-02
13.500	17.000	2.5366e-04
13.500	17.250	3.3934e-04
13.500	17.500	4.1292e-04
13.500	17.750	4.6527e-04
13.500	18.000	5.3646e-04
13.500	18.250	6.5086e-04
13.500	18.500	8.1465e-04
13.500	18.750	1.0328e-03
13.500	19.000	1.3180e-03
13.500	19.250	1.6696e-03
13.500	19.500	2.0747e-03
13.500	19.750	2.5050e-03
13.500	20.000	2.9323e-03
13.500	20.250	3.3388e-03
13.500	20.500	3.7197e-03
13.500	20.750	4.1128e-03
13.500	21.000	4.5863e-03
13.500	21.250	5.2416e-03
13.500	21.500	6.3477e-03
13.500	21.750	8.3700e-03
13.500	22.000	1.2541e-02
13.500	22.250	2.2261e-02
13.500	22.500	4.3758e-02
13.500	22.750	6.4639e-02
13.500	23.000	6.8466e-02
13.500	23.250	7.1529e-02
13.500	23.500	7.4499e-02
13.500	23.750	7.6022e-02
13.500	24.000	7.6449e-02
13.750	17.000	1.7753e-04
13.750	17.250	2.3177e-04
13.750	17.500	2.7720e-04
13.750	17.750	3.1128e-04
13.750	18.000	3.5152e-04
13.750	18.250	4.1811e-04
13.750	18.500	5.1926e-04
13.750	18.750	6.6362e-04
13.750	19.000	8.6272e-04
13.750	19.250	1.1282e-03
13.750	19.500	1.4598e-03
13.750	19.750	1.8442e-03
13.750	20.000	2.2556e-03
13.750	20.250	2.6645e-03
13.750	20.500	3.0556e-03
13.750	20.750	3.4220e-03
13.750	21.000	3.7922e-03
13.750	21.250	4.2426e-03
13.750	21.500	4.8839e-03
13.750	21.750	5.9453e-03
13.750	22.000	8.0536e-03
13.750	22.250	1.2755e-02
13.750	22.500	2.3743e-02
13.750	22.750	4.7932e-02
13.750	23.000	6.5055e-02
13.750	23.250	6.8493e-02
13.750	23.500	7.1344e-02
13.750	23.750	7.4538e-02
13.750	24.000	7.5950e-02
14.000	17.000	1.2963e-04
14.000	17.250	1.6724e-04
14.000	17.500	1.9728e-04
14.000	17.750	2.1786e-04
14.000	18.000	2.4247e-04
14.000	18.250	2.8082e-04
14.000	18.500	3.4066e-04
14.000	18.750	4.2831e-04
14.000	19.000	5.5473e-04
14.000	19.250	7.3374e-04
14.000	19.500	9.7465e-04
14.000	19.750	1.2790e-03
14.000	20.000	1.6351e-03
14.000	20.250	2.0198e-03
14.000	20.500	2.4036e-03
14.000	20.750	2.7687e-03
14.000	21.000	3.1123e-03
14.000	21.250	3.4658e-03
14.000	21.500	3.9133e-03
14.000	21.750	4.5105e-03
14.000	22.000	5.6047e-03
14.000	22.250	7.9636e-03
14.000	22.500	1.3536e-02
14.000	22.750	2.6845e-02
14.000	23.000	5.2113e-02
14.000	23.250	6.5301e-02
14.000	23.500	6.8463e-02
14.000	23.750	7.1469e-02
14.000	24.000	7.4679e-02
