nFnu 1035.92A  relative to Inci 1215.00A scaled to 1215A.
Hden   Phi(H)  Eq_Width (A)
 7.000	17.000	2.0737e-02
 7.000	17.250	1.7834e-02
 7.000	17.500	1.5086e-02
 7.000	17.750	1.2497e-02
 7.000	18.000	1.0609e-02
 7.000	18.250	9.4649e-03
 7.000	18.500	8.7432e-03
 7.000	18.750	8.3833e-03
 7.000	19.000	8.1925e-03
 7.000	19.250	8.0849e-03
 7.000	19.500	8.0388e-03
 7.000	19.750	8.0193e-03
 7.000	20.000	8.0108e-03
 7.000	20.250	8.0068e-03
 7.000	20.500	8.0048e-03
 7.000	20.750	8.0037e-03
 7.000	21.000	8.0031e-03
 7.000	21.250	8.0029e-03
 7.000	21.500	8.0029e-03
 7.000	21.750	8.0026e-03
 7.000	22.000	8.0026e-03
 7.000	22.250	8.0025e-03
 7.000	22.500	8.0025e-03
 7.000	22.750	8.0027e-03
 7.000	23.000	8.0027e-03
 7.000	23.250	8.0025e-03
 7.000	23.500	8.0025e-03
 7.000	23.750	8.0025e-03
 7.000	24.000	8.0025e-03
 7.250	17.000	2.3464e-02
 7.250	17.250	2.0477e-02
 7.250	17.500	1.7707e-02
 7.250	17.750	1.5027e-02
 7.250	18.000	1.2463e-02
 7.250	18.250	1.0591e-02
 7.250	18.500	9.4559e-03
 7.250	18.750	8.7401e-03
 7.250	19.000	8.3821e-03
 7.250	19.250	8.1921e-03
 7.250	19.500	8.0848e-03
 7.250	19.750	8.0388e-03
 7.250	20.000	8.0193e-03
 7.250	20.250	8.0108e-03
 7.250	20.500	8.0067e-03
 7.250	20.750	8.0048e-03
 7.250	21.000	8.0037e-03
 7.250	21.250	8.0031e-03
 7.250	21.500	8.0029e-03
 7.250	21.750	8.0043e-03
 7.250	22.000	8.0026e-03
 7.250	22.250	8.0026e-03
 7.250	22.500	8.0025e-03
 7.250	22.750	8.0033e-03
 7.250	23.000	8.0032e-03
 7.250	23.250	8.0025e-03
 7.250	23.500	8.0025e-03
 7.250	23.750	8.0025e-03
 7.250	24.000	8.0025e-03
 7.500	17.000	2.5825e-02
 7.500	17.250	2.3193e-02
 7.500	17.500	2.0328e-02
 7.500	17.750	1.7638e-02
 7.500	18.000	1.4998e-02
 7.500	18.250	1.2444e-02
 7.500	18.500	1.0580e-02
 7.500	18.750	9.4502e-03
 7.500	19.000	8.7380e-03
 7.500	19.250	8.3813e-03
 7.500	19.500	8.1919e-03
 7.500	19.750	8.0847e-03
 7.500	20.000	8.0388e-03
 7.500	20.250	8.0193e-03
 7.500	20.500	8.0108e-03
 7.500	20.750	8.0067e-03
 7.500	21.000	8.0048e-03
 7.500	21.250	8.0037e-03
 7.500	21.500	8.0031e-03
 7.500	21.750	8.0029e-03
 7.500	22.000	8.0026e-03
 7.500	22.250	8.0026e-03
 7.500	22.500	8.0026e-03
 7.500	22.750	8.0025e-03
 7.500	23.000	8.0029e-03
 7.500	23.250	8.0033e-03
 7.500	23.500	8.0025e-03
 7.500	23.750	8.0035e-03
 7.500	24.000	8.0025e-03
 7.750	17.000	2.8485e-02
 7.750	17.250	2.4100e-02
 7.750	17.500	2.3041e-02
 7.750	17.750	2.0240e-02
 7.750	18.000	1.7604e-02
 7.750	18.250	1.4990e-02
 7.750	18.500	1.2434e-02
 7.750	18.750	1.0573e-02
 7.750	19.000	9.4467e-03
 7.750	19.250	8.7367e-03
 7.750	19.500	8.3808e-03
 7.750	19.750	8.1917e-03
 7.750	20.000	8.0846e-03
 7.750	20.250	8.0388e-03
 7.750	20.500	8.0193e-03
 7.750	20.750	8.0108e-03
 7.750	21.000	8.0067e-03
 7.750	21.250	8.0048e-03
 7.750	21.500	8.0037e-03
 7.750	21.750	8.0031e-03
 7.750	22.000	8.0028e-03
 7.750	22.250	8.0026e-03
 7.750	22.500	8.0026e-03
 7.750	22.750	8.0027e-03
 7.750	23.000	8.0027e-03
 7.750	23.250	8.0025e-03
 7.750	23.500	8.0032e-03
 7.750	23.750	8.0032e-03
 7.750	24.000	8.0025e-03
 8.000	17.000	2.1854e-02
 8.000	17.250	2.4725e-02
 8.000	17.500	2.2781e-02
 8.000	17.750	2.2946e-02
 8.000	18.000	2.0187e-02
 8.000	18.250	1.7590e-02
 8.000	18.500	1.4995e-02
 8.000	18.750	1.2431e-02
 8.000	19.000	1.0569e-02
 8.000	19.250	9.4446e-03
 8.000	19.500	8.7359e-03
 8.000	19.750	8.3806e-03
 8.000	20.000	8.1915e-03
 8.000	20.250	8.0846e-03
 8.000	20.500	8.0388e-03
 8.000	20.750	8.0193e-03
 8.000	21.000	8.0108e-03
 8.000	21.250	8.0067e-03
 8.000	21.500	8.0047e-03
 8.000	21.750	8.0037e-03
 8.000	22.000	8.0031e-03
 8.000	22.250	8.0028e-03
 8.000	22.500	8.0026e-03
 8.000	22.750	8.0027e-03
 8.000	23.000	8.0025e-03
 8.000	23.250	8.0030e-03
 8.000	23.500	8.0024e-03
 8.000	23.750	8.0024e-03
 8.000	24.000	8.0024e-03
 8.250	17.000	1.6695e-02
 8.250	17.250	1.9029e-02
 8.250	17.500	2.2264e-02
 8.250	17.750	2.1756e-02
 8.250	18.000	2.2885e-02
 8.250	18.250	2.0150e-02
 8.250	18.500	1.7589e-02
 8.250	18.750	1.5009e-02
 8.250	19.000	1.2432e-02
 8.250	19.250	1.0567e-02
 8.250	19.500	9.4433e-03
 8.250	19.750	8.7354e-03
 8.250	20.000	8.3804e-03
 8.250	20.250	8.1915e-03
 8.250	20.500	8.0846e-03
 8.250	20.750	8.0388e-03
 8.250	21.000	8.0193e-03
 8.250	21.250	8.0108e-03
 8.250	21.500	8.0067e-03
 8.250	21.750	8.0047e-03
 8.250	22.000	8.0036e-03
 8.250	22.250	8.0030e-03
 8.250	22.500	8.0028e-03
 8.250	22.750	8.0028e-03
 8.250	23.000	8.0025e-03
 8.250	23.250	8.0045e-03
 8.250	23.500	8.0024e-03
 8.250	23.750	8.0024e-03
 8.250	24.000	8.0030e-03
 8.500	17.000	1.3181e-02
 8.500	17.250	1.4569e-02
 8.500	17.500	1.7170e-02
 8.500	17.750	2.0665e-02
 8.500	18.000	2.1145e-02
 8.500	18.250	2.2831e-02
 8.500	18.500	2.0122e-02
 8.500	18.750	1.7596e-02
 8.500	19.000	1.5029e-02
 8.500	19.250	1.2435e-02
 8.500	19.500	1.0566e-02
 8.500	19.750	9.4425e-03
 8.500	20.000	8.7351e-03
 8.500	20.250	8.3802e-03
 8.500	20.500	8.1914e-03
 8.500	20.750	8.0846e-03
 8.500	21.000	8.0388e-03
 8.500	21.250	8.0193e-03
 8.500	21.500	8.0108e-03
 8.500	21.750	8.0067e-03
 8.500	22.000	8.0047e-03
 8.500	22.250	8.0036e-03
 8.500	22.500	8.0030e-03
 8.500	22.750	8.0028e-03
 8.500	23.000	8.0026e-03
 8.500	23.250	8.0027e-03
 8.500	23.500	8.0024e-03
 8.500	23.750	8.0024e-03
 8.500	24.000	8.0024e-03
 8.750	17.000	1.0967e-02
 8.750	17.250	1.1671e-02
 8.750	17.500	1.3268e-02
 8.750	17.750	1.6049e-02
 8.750	18.000	1.9686e-02
 8.750	18.250	2.0785e-02
 8.750	18.500	2.2774e-02
 8.750	18.750	2.0093e-02
 8.750	19.000	1.7607e-02
 8.750	19.250	1.5052e-02
 8.750	19.500	1.2440e-02
 8.750	19.750	1.0566e-02
 8.750	20.000	9.4419e-03
 8.750	20.250	8.7348e-03
 8.750	20.500	8.3802e-03
 8.750	20.750	8.1914e-03
 8.750	21.000	8.0846e-03
 8.750	21.250	8.0388e-03
 8.750	21.500	8.0193e-03
 8.750	21.750	8.0108e-03
 8.750	22.000	8.0067e-03
 8.750	22.250	8.0047e-03
 8.750	22.500	8.0036e-03
 8.750	22.750	8.0030e-03
 8.750	23.000	8.0035e-03
 8.750	23.250	8.0026e-03
 8.750	23.500	8.0027e-03
 8.750	23.750	8.0024e-03
 8.750	24.000	8.0024e-03
 9.000	17.000	9.6337e-03
 9.000	17.250	9.9146e-03
 9.000	17.500	1.0793e-02
 9.000	17.750	1.2526e-02
 9.000	18.000	1.5425e-02
 9.000	18.250	1.9155e-02
 9.000	18.500	2.0545e-02
 9.000	18.750	2.2712e-02
 9.000	19.000	2.0060e-02
 9.000	19.250	1.7617e-02
 9.000	19.500	1.5077e-02
 9.000	19.750	1.2445e-02
 9.000	20.000	1.0566e-02
 9.000	20.250	9.4415e-03
 9.000	20.500	8.7347e-03
 9.000	20.750	8.3802e-03
 9.000	21.000	8.1914e-03
 9.000	21.250	8.0846e-03
 9.000	21.500	8.0388e-03
 9.000	21.750	8.0193e-03
 9.000	22.000	8.0107e-03
 9.000	22.250	8.0067e-03
 9.000	22.500	8.0047e-03
 9.000	22.750	8.0036e-03
 9.000	23.000	8.0030e-03
 9.000	23.250	8.0028e-03
 9.000	23.500	8.0026e-03
 9.000	23.750	8.0025e-03
 9.000	24.000	8.0025e-03
 9.250	17.000	8.8901e-03
 9.250	17.250	8.8921e-03
 9.250	17.500	9.3457e-03
 9.250	17.750	1.0366e-02
 9.250	18.000	1.2239e-02
 9.250	18.250	1.5261e-02
 9.250	18.500	1.8921e-02
 9.250	18.750	2.0377e-02
 9.250	19.000	2.2642e-02
 9.250	19.250	2.0019e-02
 9.250	19.500	1.7619e-02
 9.250	19.750	1.5099e-02
 9.250	20.000	1.2450e-02
 9.250	20.250	1.0566e-02
 9.250	20.500	9.4412e-03
 9.250	20.750	8.7345e-03
 9.250	21.000	8.3802e-03
 9.250	21.250	8.1914e-03
 9.250	21.500	8.0841e-03
 9.250	21.750	8.0382e-03
 9.250	22.000	8.0187e-03
 9.250	22.250	8.0102e-03
 9.250	22.500	8.0063e-03
 9.250	22.750	8.0044e-03
 9.250	23.000	8.0034e-03
 9.250	23.250	8.0029e-03
 9.250	23.500	8.0026e-03
 9.250	23.750	8.0024e-03
 9.250	24.000	8.0024e-03
 9.500	17.000	8.5582e-03
 9.500	17.250	8.3434e-03
 9.500	17.500	8.5401e-03
 9.500	17.750	9.1621e-03
 9.500	18.000	1.0329e-02
 9.500	18.250	1.2370e-02
 9.500	18.500	1.5566e-02
 9.500	18.750	1.8823e-02
 9.500	19.000	2.0252e-02
 9.500	19.250	2.2566e-02
 9.500	19.500	1.9971e-02
 9.500	19.750	1.7611e-02
 9.500	20.000	1.5116e-02
 9.500	20.250	1.2455e-02
 9.500	20.500	1.0567e-02
 9.500	20.750	9.4406e-03
 9.500	21.000	8.7338e-03
 9.500	21.250	8.3796e-03
 9.500	21.500	8.1908e-03
 9.500	21.750	8.0838e-03
 9.500	22.000	8.0379e-03
 9.500	22.250	8.0185e-03
 9.500	22.500	8.0100e-03
 9.500	22.750	8.0059e-03
 9.500	23.000	8.0040e-03
 9.500	23.250	8.0029e-03
 9.500	23.500	8.0023e-03
 9.500	23.750	8.0020e-03
 9.500	24.000	8.0018e-03
 9.750	17.000	8.5830e-03
 9.750	17.250	8.1225e-03
 9.750	17.500	8.1124e-03
 9.750	17.750	8.5061e-03
 9.750	18.000	9.3298e-03
 9.750	18.250	1.0732e-02
 9.750	18.500	1.2997e-02
 9.750	18.750	1.6230e-02
 9.750	19.000	1.8631e-02
 9.750	19.250	2.0150e-02
 9.750	19.500	2.2487e-02
 9.750	19.750	1.9917e-02
 9.750	20.000	1.7593e-02
 9.750	20.250	1.5126e-02
 9.750	20.500	1.2458e-02
 9.750	20.750	1.0567e-02
 9.750	21.000	9.4405e-03
 9.750	21.250	8.7337e-03
 9.750	21.500	8.3796e-03
 9.750	21.750	8.1909e-03
 9.750	22.000	8.0838e-03
 9.750	22.250	8.0380e-03
 9.750	22.500	8.0185e-03
 9.750	22.750	8.0100e-03
 9.750	23.000	8.0059e-03
 9.750	23.250	8.0039e-03
 9.750	23.500	8.0029e-03
 9.750	23.750	8.0022e-03
 9.750	24.000	8.0020e-03
10.000	17.000	8.9617e-03
10.000	17.250	8.1979e-03
10.000	17.500	7.9439e-03
10.000	17.750	8.1789e-03
10.000	18.000	8.8673e-03
10.000	18.250	9.9315e-03
10.000	18.500	1.1520e-02
10.000	18.750	1.3884e-02
10.000	19.000	1.6708e-02
10.000	19.250	1.8429e-02
10.000	19.500	2.0054e-02
10.000	19.750	2.2409e-02
10.000	20.000	1.9864e-02
10.000	20.250	1.7566e-02
10.000	20.500	1.5131e-02
10.000	20.750	1.2461e-02
10.000	21.000	1.0567e-02
10.000	21.250	9.4406e-03
10.000	21.500	8.7336e-03
10.000	21.750	8.3797e-03
10.000	22.000	8.1909e-03
10.000	22.250	8.0840e-03
10.000	22.500	8.0380e-03
10.000	22.750	8.0185e-03
10.000	23.000	8.0100e-03
10.000	23.250	8.0060e-03
10.000	23.500	8.0040e-03
10.000	23.750	8.0029e-03
10.000	24.000	8.0023e-03
10.250	17.000	9.7690e-03
10.250	17.250	8.6332e-03
10.250	17.500	8.0830e-03
10.250	17.750	8.1300e-03
10.250	18.000	8.7147e-03
10.250	18.250	9.6003e-03
10.250	18.500	1.0803e-02
10.250	18.750	1.2491e-02
10.250	19.000	1.4809e-02
10.250	19.250	1.7096e-02
10.250	19.500	1.8354e-02
10.250	19.750	1.9981e-02
10.250	20.000	2.2383e-02
10.250	20.250	1.9833e-02
10.250	20.500	1.7536e-02
10.250	20.750	1.5130e-02
10.250	21.000	1.2463e-02
10.250	21.250	1.0567e-02
10.250	21.500	9.4406e-03
10.250	21.750	8.7336e-03
10.250	22.000	8.3797e-03
10.250	22.250	8.1909e-03
10.250	22.500	8.0840e-03
10.250	22.750	8.0380e-03
10.250	23.000	8.0186e-03
10.250	23.250	8.0100e-03
10.250	23.500	8.0059e-03
10.250	23.750	8.0040e-03
10.250	24.000	8.0029e-03
10.500	17.000	1.0980e-02
10.500	17.250	9.5104e-03
10.500	17.500	8.6212e-03
10.500	17.750	8.4420e-03
10.500	18.000	8.8585e-03
10.500	18.250	9.6095e-03
10.500	18.500	1.0513e-02
10.500	18.750	1.1690e-02
10.500	19.000	1.3285e-02
10.500	19.250	1.5443e-02
10.500	19.500	1.7533e-02
10.500	19.750	1.8543e-02
10.500	20.000	2.0108e-02
10.500	20.250	2.2422e-02
10.500	20.500	1.9836e-02
10.500	20.750	1.7509e-02
10.500	21.000	1.5124e-02
10.500	21.250	1.2463e-02
10.500	21.500	1.0567e-02
10.500	21.750	9.4407e-03
10.500	22.000	8.7337e-03
10.500	22.250	8.3798e-03
10.500	22.500	8.1910e-03
10.500	22.750	8.0841e-03
10.500	23.000	8.0381e-03
10.500	23.250	8.0185e-03
10.500	23.500	8.0100e-03
10.500	23.750	8.0060e-03
10.500	24.000	8.0040e-03
10.750	17.000	1.2558e-02
10.750	17.250	1.0814e-02
10.750	17.500	9.6650e-03
10.750	17.750	9.2347e-03
10.750	18.000	9.3844e-03
10.750	18.250	9.8345e-03
10.750	18.500	1.0440e-02
10.750	18.750	1.1159e-02
10.750	19.000	1.2219e-02
10.750	19.250	1.3866e-02
10.750	19.500	1.5809e-02
10.750	19.750	1.7775e-02
10.750	20.000	1.9007e-02
10.750	20.250	2.0540e-02
10.750	20.500	2.2683e-02
10.750	20.750	1.9898e-02
10.750	21.000	1.7496e-02
10.750	21.250	1.5112e-02
10.750	21.500	1.2462e-02
10.750	21.750	1.0567e-02
10.750	22.000	9.4407e-03
10.750	22.250	8.7337e-03
10.750	22.500	8.3800e-03
10.750	22.750	8.1911e-03
10.750	23.000	8.0841e-03
10.750	23.250	8.0382e-03
10.750	23.500	8.0186e-03
10.750	23.750	8.0100e-03
10.750	24.000	8.0060e-03
11.000	17.000	1.4488e-02
11.000	17.250	1.2505e-02
11.000	17.500	1.1180e-02
11.000	17.750	1.0563e-02
11.000	18.000	1.0384e-02
11.000	18.250	1.0388e-02
11.000	18.500	1.0558e-02
11.000	18.750	1.0919e-02
11.000	19.000	1.1554e-02
11.000	19.250	1.2665e-02
11.000	19.500	1.4451e-02
11.000	19.750	1.6499e-02
11.000	20.000	1.8501e-02
11.000	20.250	2.0129e-02
11.000	20.500	2.1353e-02
11.000	20.750	2.3229e-02
11.000	21.000	2.0127e-02
11.000	21.250	1.7509e-02
11.000	21.500	1.5097e-02
11.000	21.750	1.2460e-02
11.000	22.000	1.0566e-02
11.000	22.250	9.4409e-03
11.000	22.500	8.7335e-03
11.000	22.750	8.3801e-03
11.000	23.000	8.1913e-03
11.000	23.250	8.0841e-03
11.000	23.500	8.0383e-03
11.000	23.750	8.0187e-03
11.000	24.000	8.0100e-03
11.250	17.000	1.6772e-02
11.250	17.250	1.4548e-02
11.250	17.500	1.3099e-02
11.250	17.750	1.2363e-02
11.250	18.000	1.1897e-02
11.250	18.250	1.1380e-02
11.250	18.500	1.1019e-02
11.250	18.750	1.1041e-02
11.250	19.000	1.1269e-02
11.250	19.250	1.1865e-02
11.250	19.500	1.3097e-02
11.250	19.750	1.5104e-02
11.250	20.000	1.7064e-02
11.250	20.250	1.9432e-02
11.250	20.500	2.1170e-02
11.250	20.750	2.2680e-02
11.250	21.000	2.4340e-02
11.250	21.250	2.0529e-02
11.250	21.500	1.7587e-02
11.250	21.750	1.5080e-02
11.250	22.000	1.2456e-02
11.250	22.250	1.0566e-02
11.250	22.500	9.4412e-03
11.250	22.750	8.7333e-03
11.250	23.000	8.3802e-03
11.250	23.250	8.1915e-03
11.250	23.500	8.0842e-03
11.250	23.750	8.0383e-03
11.250	24.000	8.0188e-03
11.500	17.000	1.9421e-02
11.500	17.250	1.6954e-02
11.500	17.500	1.5379e-02
11.500	17.750	1.4530e-02
11.500	18.000	1.3808e-02
11.500	18.250	1.2908e-02
11.500	18.500	1.2047e-02
11.500	18.750	1.1545e-02
11.500	19.000	1.1360e-02
11.500	19.250	1.1517e-02
11.500	19.500	1.2201e-02
11.500	19.750	1.3648e-02
11.500	20.000	1.5962e-02
11.500	20.250	1.8005e-02
11.500	20.500	2.0877e-02
11.500	20.750	2.2995e-02
11.500	21.000	2.4685e-02
11.500	21.250	2.5783e-02
11.500	21.500	2.1152e-02
11.500	21.750	1.7737e-02
11.500	22.000	1.5067e-02
11.500	22.250	1.2452e-02
11.500	22.500	1.0565e-02
11.500	22.750	9.4416e-03
11.500	23.000	8.7332e-03
11.500	23.250	8.3801e-03
11.500	23.500	8.1916e-03
11.500	23.750	8.0843e-03
11.500	24.000	8.0384e-03
11.750	17.000	2.2288e-02
11.750	17.250	1.9660e-02
11.750	17.500	1.7958e-02
11.750	17.750	1.6948e-02
11.750	18.000	1.5967e-02
11.750	18.250	1.4854e-02
11.750	18.500	1.3634e-02
11.750	18.750	1.2528e-02
11.750	19.000	1.1883e-02
11.750	19.250	1.1598e-02
11.750	19.500	1.1773e-02
11.750	19.750	1.2581e-02
11.750	20.000	1.4328e-02
11.750	20.250	1.7033e-02
11.750	20.500	1.9312e-02
11.750	20.750	2.2695e-02
11.750	21.000	2.5420e-02
11.750	21.250	2.7651e-02
11.750	21.500	2.7293e-02
11.750	21.750	2.1937e-02
11.750	22.000	1.8012e-02
11.750	22.250	1.5066e-02
11.750	22.500	1.2446e-02
11.750	22.750	1.0564e-02
11.750	23.000	9.4420e-03
11.750	23.250	8.7329e-03
11.750	23.500	8.3801e-03
11.750	23.750	8.1917e-03
11.750	24.000	8.0844e-03
12.000	17.000	2.5019e-02
12.000	17.250	2.2400e-02
12.000	17.500	2.0625e-02
12.000	17.750	1.9435e-02
12.000	18.000	1.8294e-02
12.000	18.250	1.7058e-02
12.000	18.500	1.5648e-02
12.000	18.750	1.4190e-02
12.000	19.000	1.2954e-02
12.000	19.250	1.2106e-02
12.000	19.500	1.1804e-02
12.000	19.750	1.2036e-02
12.000	20.000	1.3071e-02
12.000	20.250	1.5189e-02
12.000	20.500	1.8383e-02
12.000	20.750	2.1054e-02
12.000	21.000	2.5229e-02
12.000	21.250	2.9319e-02
12.000	21.500	3.1869e-02
12.000	21.750	2.8786e-02
12.000	22.000	2.2866e-02
12.000	22.250	1.8388e-02
12.000	22.500	1.5086e-02
12.000	22.750	1.2440e-02
12.000	23.000	1.0563e-02
12.000	23.250	9.4426e-03
12.000	23.500	8.7326e-03
12.000	23.750	8.3800e-03
12.000	24.000	8.1918e-03
12.250	17.000	2.6671e-02
12.250	17.250	2.4609e-02
12.250	17.500	2.2944e-02
12.250	17.750	2.1724e-02
12.250	18.000	2.0624e-02
12.250	18.250	1.9396e-02
12.250	18.500	1.7904e-02
12.250	18.750	1.6303e-02
12.250	19.000	1.4632e-02
12.250	19.250	1.3194e-02
12.250	19.500	1.2286e-02
12.250	19.750	1.2003e-02
12.250	20.000	1.2358e-02
12.250	20.250	1.3690e-02
12.250	20.500	1.6300e-02
12.250	20.750	2.0146e-02
12.250	21.000	2.3754e-02
12.250	21.250	2.9281e-02
12.250	21.500	3.4544e-02
12.250	21.750	3.6796e-02
12.250	22.000	3.0384e-02
12.250	22.250	2.3464e-02
12.250	22.500	1.8570e-02
12.250	22.750	1.5129e-02
12.250	23.000	1.2434e-02
12.250	23.250	1.0562e-02
12.250	23.500	9.4431e-03
12.250	23.750	8.7321e-03
12.250	24.000	8.3798e-03
12.500	17.000	2.5322e-02
12.500	17.250	2.5396e-02
12.500	17.500	2.4402e-02
12.500	17.750	2.3541e-02
12.500	18.000	2.2707e-02
12.500	18.250	2.1632e-02
12.500	18.500	2.0275e-02
12.500	18.750	1.8597e-02
12.500	19.000	1.6698e-02
12.500	19.250	1.4872e-02
12.500	19.500	1.3314e-02
12.500	19.750	1.2429e-02
12.500	20.000	1.2206e-02
12.500	20.250	1.2762e-02
12.500	20.500	1.4494e-02
12.500	20.750	1.7841e-02
12.500	21.000	2.2848e-02
12.500	21.250	2.8069e-02
12.500	21.500	3.4913e-02
12.500	21.750	4.0877e-02
12.500	22.000	4.0589e-02
12.500	22.250	3.1698e-02
12.500	22.500	2.4349e-02
12.500	22.750	1.9062e-02
12.500	23.000	1.5192e-02
12.500	23.250	1.2429e-02
12.500	23.500	1.0561e-02
12.500	23.750	9.4437e-03
12.500	24.000	8.7314e-03
12.750	17.000	2.1944e-02
12.750	17.250	2.3538e-02
12.750	17.500	2.4644e-02
12.750	17.750	2.4559e-02
12.750	18.000	2.4168e-02
12.750	18.250	2.3506e-02
12.750	18.500	2.2408e-02
12.750	18.750	2.0898e-02
12.750	19.000	1.9018e-02
12.750	19.250	1.6935e-02
12.750	19.500	1.4937e-02
12.750	19.750	1.3355e-02
12.750	20.000	1.2507e-02
12.750	20.250	1.2455e-02
12.750	20.500	1.3306e-02
12.750	20.750	1.5656e-02
12.750	21.000	2.0293e-02
12.750	21.250	2.7070e-02
12.750	21.500	3.3676e-02
12.750	21.750	4.2578e-02
12.750	22.000	4.7972e-02
12.750	22.250	4.3880e-02
12.750	22.500	3.3442e-02
12.750	22.750	2.5418e-02
12.750	23.000	1.9482e-02
12.750	23.250	1.5268e-02
12.750	23.500	1.2426e-02
12.750	23.750	1.0559e-02
12.750	24.000	9.4442e-03
13.000	17.000	2.1919e-02
13.000	17.250	2.0294e-02
13.000	17.500	2.1662e-02
13.000	17.750	2.3465e-02
13.000	18.000	2.4171e-02
13.000	18.250	2.4267e-02
13.000	18.500	2.3826e-02
13.000	18.750	2.2758e-02
13.000	19.000	2.1153e-02
13.000	19.250	1.9140e-02
13.000	19.500	1.6956e-02
13.000	19.750	1.4919e-02
13.000	20.000	1.3361e-02
13.000	20.250	1.2575e-02
13.000	20.500	1.2757e-02
13.000	20.750	1.4063e-02
13.000	21.000	1.7175e-02
13.000	21.250	2.3433e-02
13.000	21.500	3.2044e-02
13.000	21.750	4.1447e-02
13.000	22.000	5.0114e-02
13.000	22.250	5.4553e-02
13.000	22.500	4.6968e-02
13.000	22.750	3.5026e-02
13.000	23.000	2.6243e-02
13.000	23.250	1.9857e-02
13.000	23.500	1.5357e-02
13.000	23.750	1.2426e-02
13.000	24.000	1.0558e-02
13.250	17.000	2.0873e-02
13.250	17.250	1.8838e-02
13.250	17.500	1.2159e-02
13.250	17.750	1.5939e-02
13.250	18.000	2.0480e-02
13.250	18.250	2.2498e-02
13.250	18.500	2.3444e-02
13.250	18.750	2.3483e-02
13.250	19.000	2.2616e-02
13.250	19.250	2.1025e-02
13.250	19.500	1.8992e-02
13.250	19.750	1.6875e-02
13.250	20.000	1.4856e-02
13.250	20.250	1.3334e-02
13.250	20.500	1.2654e-02
13.250	20.750	1.3040e-02
13.250	21.000	1.4968e-02
13.250	21.250	1.9044e-02
13.250	21.500	2.5990e-02
13.250	21.750	3.5838e-02
13.250	22.000	4.7138e-02
13.250	22.250	5.7318e-02
13.250	22.500	6.0270e-02
13.250	22.750	5.0182e-02
13.250	23.000	3.6691e-02
13.250	23.250	2.6582e-02
13.250	23.500	1.9970e-02
13.250	23.750	1.5452e-02
13.250	24.000	1.2431e-02
13.500	17.000	1.9913e-02
13.500	17.250	1.7918e-02
13.500	17.500	1.0847e-02
13.500	17.750	1.0911e-02
13.500	18.000	1.1314e-02
13.500	18.250	1.3692e-02
13.500	18.500	1.8677e-02
13.500	18.750	2.1403e-02
13.500	19.000	2.2383e-02
13.500	19.250	2.1966e-02
13.500	19.500	2.0597e-02
13.500	19.750	1.8701e-02
13.500	20.000	1.6644e-02
13.500	20.250	1.4770e-02
13.500	20.500	1.3361e-02
13.500	20.750	1.2739e-02
13.500	21.000	1.3145e-02
13.500	21.250	1.5523e-02
13.500	21.500	1.9412e-02
13.500	21.750	2.6953e-02
13.500	22.000	3.8205e-02
13.500	22.250	5.1538e-02
13.500	22.500	6.3143e-02
13.500	22.750	6.5675e-02
13.500	23.000	5.3491e-02
13.500	23.250	3.8583e-02
13.500	23.500	2.7800e-02
13.500	23.750	2.0496e-02
13.500	24.000	1.5539e-02
13.750	17.000	1.8754e-02
13.750	17.250	1.7612e-02
13.750	17.500	1.0429e-02
13.750	17.750	1.0156e-02
13.750	18.000	1.0526e-02
13.750	18.250	1.0945e-02
13.750	18.500	1.1308e-02
13.750	18.750	1.2248e-02
13.750	19.000	1.7994e-02
13.750	19.250	2.0595e-02
13.750	19.500	2.0909e-02
13.750	19.750	1.9893e-02
13.750	20.000	1.8247e-02
13.750	20.250	1.6433e-02
13.750	20.500	1.4761e-02
13.750	20.750	1.3529e-02
13.750	21.000	1.3019e-02
13.750	21.250	1.3526e-02
13.750	21.500	1.5683e-02
13.750	21.750	2.0288e-02
13.750	22.000	2.8511e-02
13.750	22.250	4.2059e-02
13.750	22.500	5.6664e-02
13.750	22.750	6.9966e-02
13.750	23.000	7.1546e-02
13.750	23.250	5.6773e-02
13.750	23.500	4.0085e-02
13.750	23.750	2.8541e-02
13.750	24.000	2.0795e-02
14.000	17.000	1.7135e-02
14.000	17.250	1.7178e-02
14.000	17.500	1.1261e-02
14.000	17.750	9.4319e-03
14.000	18.000	9.7682e-03
14.000	18.250	1.0187e-02
14.000	18.500	1.0576e-02
14.000	18.750	1.0862e-02
14.000	19.000	1.1013e-02
14.000	19.250	1.3300e-02
14.000	19.500	1.8263e-02
14.000	19.750	1.9540e-02
14.000	20.000	1.9053e-02
14.000	20.250	1.7762e-02
14.000	20.500	1.6253e-02
14.000	20.750	1.4897e-02
14.000	21.000	1.3950e-02
14.000	21.250	1.3763e-02
14.000	21.500	1.4473e-02
14.000	21.750	1.7050e-02
14.000	22.000	2.2354e-02
14.000	22.250	3.2917e-02
14.000	22.500	4.8700e-02
14.000	22.750	6.3591e-02
14.000	23.000	7.7464e-02
14.000	23.250	7.7947e-02
14.000	23.500	6.0029e-02
14.000	23.750	4.1493e-02
14.000	24.000	2.9292e-02
