InwC 1073.86A  relative to Inci 1215.00A scaled to 1215A.
Hden   Phi(H)  Eq_Width (A)
 7.000	17.000	7.9876e-03
 7.000	17.250	7.9910e-03
 7.000	17.500	7.9943e-03
 7.000	17.750	7.9978e-03
 7.000	18.000	8.0012e-03
 7.000	18.250	8.0040e-03
 7.000	18.500	8.0060e-03
 7.000	18.750	8.0070e-03
 7.000	19.000	8.0080e-03
 7.000	19.250	8.0086e-03
 7.000	19.500	8.0089e-03
 7.000	19.750	8.0091e-03
 7.000	20.000	8.0091e-03
 7.000	20.250	8.0091e-03
 7.000	20.500	8.0092e-03
 7.000	20.750	8.0092e-03
 7.000	21.000	8.0092e-03
 7.000	21.250	8.0092e-03
 7.000	21.500	8.0094e-03
 7.000	21.750	8.0092e-03
 7.000	22.000	8.0092e-03
 7.000	22.250	8.0092e-03
 7.000	22.500	8.0092e-03
 7.000	22.750	8.0095e-03
 7.000	23.000	8.0095e-03
 7.000	23.250	8.0092e-03
 7.000	23.500	8.0092e-03
 7.000	23.750	8.0092e-03
 7.000	24.000	8.0092e-03
 7.250	17.000	7.9743e-03
 7.250	17.250	7.9877e-03
 7.250	17.500	7.9910e-03
 7.250	17.750	7.9944e-03
 7.250	18.000	7.9978e-03
 7.250	18.250	8.0012e-03
 7.250	18.500	8.0040e-03
 7.250	18.750	8.0060e-03
 7.250	19.000	8.0070e-03
 7.250	19.250	8.0080e-03
 7.250	19.500	8.0086e-03
 7.250	19.750	8.0089e-03
 7.250	20.000	8.0091e-03
 7.250	20.250	8.0091e-03
 7.250	20.500	8.0091e-03
 7.250	20.750	8.0091e-03
 7.250	21.000	8.0092e-03
 7.250	21.250	8.0092e-03
 7.250	21.500	8.0092e-03
 7.250	21.750	8.0108e-03
 7.250	22.000	8.0092e-03
 7.250	22.250	8.0092e-03
 7.250	22.500	8.0092e-03
 7.250	22.750	8.0100e-03
 7.250	23.000	8.0100e-03
 7.250	23.250	8.0092e-03
 7.250	23.500	8.0092e-03
 7.250	23.750	8.0092e-03
 7.250	24.000	8.0092e-03
 7.500	17.000	7.6465e-03
 7.500	17.250	7.9750e-03
 7.500	17.500	7.9877e-03
 7.500	17.750	7.9910e-03
 7.500	18.000	7.9944e-03
 7.500	18.250	7.9978e-03
 7.500	18.500	8.0012e-03
 7.500	18.750	8.0040e-03
 7.500	19.000	8.0060e-03
 7.500	19.250	8.0070e-03
 7.500	19.500	8.0080e-03
 7.500	19.750	8.0086e-03
 7.500	20.000	8.0089e-03
 7.500	20.250	8.0091e-03
 7.500	20.500	8.0091e-03
 7.500	20.750	8.0091e-03
 7.500	21.000	8.0091e-03
 7.500	21.250	8.0091e-03
 7.500	21.500	8.0091e-03
 7.500	21.750	8.0092e-03
 7.500	22.000	8.0092e-03
 7.500	22.250	8.0092e-03
 7.500	22.500	8.0092e-03
 7.500	22.750	8.0092e-03
 7.500	23.000	8.0096e-03
 7.500	23.250	8.0100e-03
 7.500	23.500	8.0092e-03
 7.500	23.750	8.0102e-03
 7.500	24.000	8.0092e-03
 7.750	17.000	7.9327e-03
 7.750	17.250	7.6481e-03
 7.750	17.500	7.9755e-03
 7.750	17.750	7.9877e-03
 7.750	18.000	7.9910e-03
 7.750	18.250	7.9944e-03
 7.750	18.500	7.9978e-03
 7.750	18.750	8.0012e-03
 7.750	19.000	8.0040e-03
 7.750	19.250	8.0060e-03
 7.750	19.500	8.0070e-03
 7.750	19.750	8.0080e-03
 7.750	20.000	8.0086e-03
 7.750	20.250	8.0089e-03
 7.750	20.500	8.0091e-03
 7.750	20.750	8.0091e-03
 7.750	21.000	8.0091e-03
 7.750	21.250	8.0091e-03
 7.750	21.500	8.0091e-03
 7.750	21.750	8.0091e-03
 7.750	22.000	8.0091e-03
 7.750	22.250	8.0091e-03
 7.750	22.500	8.0092e-03
 7.750	22.750	8.0094e-03
 7.750	23.000	8.0095e-03
 7.750	23.250	8.0092e-03
 7.750	23.500	8.0100e-03
 7.750	23.750	8.0100e-03
 7.750	24.000	8.0092e-03
 8.000	17.000	1.0187e-02
 8.000	17.250	7.9751e-03
 8.000	17.500	7.6453e-03
 8.000	17.750	7.9742e-03
 8.000	18.000	7.9877e-03
 8.000	18.250	7.9910e-03
 8.000	18.500	7.9944e-03
 8.000	18.750	7.9979e-03
 8.000	19.000	8.0012e-03
 8.000	19.250	8.0040e-03
 8.000	19.500	8.0060e-03
 8.000	19.750	8.0070e-03
 8.000	20.000	8.0080e-03
 8.000	20.250	8.0086e-03
 8.000	20.500	8.0089e-03
 8.000	20.750	8.0090e-03
 8.000	21.000	8.0091e-03
 8.000	21.250	8.0091e-03
 8.000	21.500	8.0091e-03
 8.000	21.750	8.0091e-03
 8.000	22.000	8.0091e-03
 8.000	22.250	8.0091e-03
 8.000	22.500	8.0091e-03
 8.000	22.750	8.0093e-03
 8.000	23.000	8.0091e-03
 8.000	23.250	8.0096e-03
 8.000	23.500	8.0091e-03
 8.000	23.750	8.0091e-03
 8.000	24.000	8.0091e-03
 8.250	17.000	1.1953e-02
 8.250	17.250	1.0156e-02
 8.250	17.500	7.9663e-03
 8.250	17.750	7.6464e-03
 8.250	18.000	7.9747e-03
 8.250	18.250	7.9877e-03
 8.250	18.500	7.9910e-03
 8.250	18.750	7.9945e-03
 8.250	19.000	7.9979e-03
 8.250	19.250	8.0012e-03
 8.250	19.500	8.0040e-03
 8.250	19.750	8.0060e-03
 8.250	20.000	8.0070e-03
 8.250	20.250	8.0080e-03
 8.250	20.500	8.0086e-03
 8.250	20.750	8.0089e-03
 8.250	21.000	8.0090e-03
 8.250	21.250	8.0091e-03
 8.250	21.500	8.0091e-03
 8.250	21.750	8.0091e-03
 8.250	22.000	8.0091e-03
 8.250	22.250	8.0091e-03
 8.250	22.500	8.0091e-03
 8.250	22.750	8.0093e-03
 8.250	23.000	8.0091e-03
 8.250	23.250	8.0112e-03
 8.250	23.500	8.0091e-03
 8.250	23.750	8.0091e-03
 8.250	24.000	8.0097e-03
 8.500	17.000	1.3211e-02
 8.500	17.250	1.1902e-02
 8.500	17.500	1.0118e-02
 8.500	17.750	7.9539e-03
 8.500	18.000	7.6474e-03
 8.500	18.250	7.9749e-03
 8.500	18.500	7.9877e-03
 8.500	18.750	7.9911e-03
 8.500	19.000	7.9945e-03
 8.500	19.250	7.9979e-03
 8.500	19.500	8.0012e-03
 8.500	19.750	8.0040e-03
 8.500	20.000	8.0060e-03
 8.500	20.250	8.0070e-03
 8.500	20.500	8.0080e-03
 8.500	20.750	8.0086e-03
 8.500	21.000	8.0089e-03
 8.500	21.250	8.0091e-03
 8.500	21.500	8.0091e-03
 8.500	21.750	8.0091e-03
 8.500	22.000	8.0091e-03
 8.500	22.250	8.0091e-03
 8.500	22.500	8.0091e-03
 8.500	22.750	8.0091e-03
 8.500	23.000	8.0091e-03
 8.500	23.250	8.0093e-03
 8.500	23.500	8.0091e-03
 8.500	23.750	8.0091e-03
 8.500	24.000	8.0091e-03
 8.750	17.000	1.4059e-02
 8.750	17.250	1.3159e-02
 8.750	17.500	1.1837e-02
 8.750	17.750	1.0093e-02
 8.750	18.000	7.9315e-03
 8.750	18.250	7.6480e-03
 8.750	18.500	7.9750e-03
 8.750	18.750	7.9876e-03
 8.750	19.000	7.9911e-03
 8.750	19.250	7.9946e-03
 8.750	19.500	7.9979e-03
 8.750	19.750	8.0012e-03
 8.750	20.000	8.0040e-03
 8.750	20.250	8.0060e-03
 8.750	20.500	8.0070e-03
 8.750	20.750	8.0080e-03
 8.750	21.000	8.0086e-03
 8.750	21.250	8.0089e-03
 8.750	21.500	8.0090e-03
 8.750	21.750	8.0091e-03
 8.750	22.000	8.0091e-03
 8.750	22.250	8.0091e-03
 8.750	22.500	8.0091e-03
 8.750	22.750	8.0091e-03
 8.750	23.000	8.0099e-03
 8.750	23.250	8.0091e-03
 8.750	23.500	8.0093e-03
 8.750	23.750	8.0091e-03
 8.750	24.000	8.0091e-03
 9.000	17.000	1.4582e-02
 9.000	17.250	1.4003e-02
 9.000	17.500	1.3076e-02
 9.000	17.750	1.1729e-02
 9.000	18.000	9.9766e-03
 9.000	18.250	7.8608e-03
 9.000	18.500	7.6481e-03
 9.000	18.750	7.9748e-03
 9.000	19.000	7.9876e-03
 9.000	19.250	7.9911e-03
 9.000	19.500	7.9946e-03
 9.000	19.750	7.9979e-03
 9.000	20.000	8.0012e-03
 9.000	20.250	8.0040e-03
 9.000	20.500	8.0060e-03
 9.000	20.750	8.0070e-03
 9.000	21.000	8.0080e-03
 9.000	21.250	8.0086e-03
 9.000	21.500	8.0089e-03
 9.000	21.750	8.0090e-03
 9.000	22.000	8.0091e-03
 9.000	22.250	8.0091e-03
 9.000	22.500	8.0091e-03
 9.000	22.750	8.0091e-03
 9.000	23.000	8.0091e-03
 9.000	23.250	8.0091e-03
 9.000	23.500	8.0091e-03
 9.000	23.750	8.0091e-03
 9.000	24.000	8.0092e-03
 9.250	17.000	1.4852e-02
 9.250	17.250	1.4526e-02
 9.250	17.500	1.3910e-02
 9.250	17.750	1.2926e-02
 9.250	18.000	1.1532e-02
 9.250	18.250	9.7602e-03
 9.250	18.500	7.7012e-03
 9.250	18.750	7.6474e-03
 9.250	19.000	7.9742e-03
 9.250	19.250	7.9874e-03
 9.250	19.500	7.9910e-03
 9.250	19.750	7.9946e-03
 9.250	20.000	7.9980e-03
 9.250	20.250	8.0013e-03
 9.250	20.500	8.0040e-03
 9.250	20.750	8.0060e-03
 9.250	21.000	8.0070e-03
 9.250	21.250	8.0080e-03
 9.250	21.500	8.0082e-03
 9.250	21.750	8.0084e-03
 9.250	22.000	8.0083e-03
 9.250	22.250	8.0086e-03
 9.250	22.500	8.0087e-03
 9.250	22.750	8.0087e-03
 9.250	23.000	8.0089e-03
 9.250	23.250	8.0090e-03
 9.250	23.500	8.0090e-03
 9.250	23.750	8.0089e-03
 9.250	24.000	8.0090e-03
 9.500	17.000	1.4918e-02
 9.500	17.250	1.4792e-02
 9.500	17.500	1.4427e-02
 9.500	17.750	1.3745e-02
 9.500	18.000	1.2670e-02
 9.500	18.250	1.1172e-02
 9.500	18.500	9.3365e-03
 9.500	18.750	7.4519e-03
 9.500	19.000	7.6457e-03
 9.500	19.250	7.9728e-03
 9.500	19.500	7.9872e-03
 9.500	19.750	7.9910e-03
 9.500	20.000	7.9947e-03
 9.500	20.250	7.9980e-03
 9.500	20.500	8.0013e-03
 9.500	20.750	8.0036e-03
 9.500	21.000	8.0056e-03
 9.500	21.250	8.0065e-03
 9.500	21.500	8.0074e-03
 9.500	21.750	8.0079e-03
 9.500	22.000	8.0081e-03
 9.500	22.250	8.0082e-03
 9.500	22.500	8.0082e-03
 9.500	22.750	8.0083e-03
 9.500	23.000	8.0083e-03
 9.500	23.250	8.0083e-03
 9.500	23.500	8.0083e-03
 9.500	23.750	8.0083e-03
 9.500	24.000	8.0083e-03
 9.750	17.000	1.4822e-02
 9.750	17.250	1.4857e-02
 9.750	17.500	1.4694e-02
 9.750	17.750	1.4254e-02
 9.750	18.000	1.3436e-02
 9.750	18.250	1.2218e-02
 9.750	18.500	1.0580e-02
 9.750	18.750	8.6029e-03
 9.750	19.000	7.4481e-03
 9.750	19.250	7.6425e-03
 9.750	19.500	7.9700e-03
 9.750	19.750	7.9870e-03
 9.750	20.000	7.9909e-03
 9.750	20.250	7.9946e-03
 9.750	20.500	7.9980e-03
 9.750	20.750	8.0012e-03
 9.750	21.000	8.0038e-03
 9.750	21.250	8.0056e-03
 9.750	21.500	8.0066e-03
 9.750	21.750	8.0075e-03
 9.750	22.000	8.0079e-03
 9.750	22.250	8.0081e-03
 9.750	22.500	8.0082e-03
 9.750	22.750	8.0083e-03
 9.750	23.000	8.0083e-03
 9.750	23.250	8.0083e-03
 9.750	23.500	8.0083e-03
 9.750	23.750	8.0083e-03
 9.750	24.000	8.0083e-03
10.000	17.000	1.4588e-02
10.000	17.250	1.4753e-02
10.000	17.500	1.4747e-02
10.000	17.750	1.4499e-02
10.000	18.000	1.3908e-02
10.000	18.250	1.2949e-02
10.000	18.500	1.1599e-02
10.000	18.750	9.9080e-03
10.000	19.000	8.0531e-03
10.000	19.250	7.4458e-03
10.000	19.500	7.6374e-03
10.000	19.750	7.9651e-03
10.000	20.000	7.9866e-03
10.000	20.250	7.9909e-03
10.000	20.500	7.9947e-03
10.000	20.750	7.9981e-03
10.000	21.000	8.0013e-03
10.000	21.250	8.0040e-03
10.000	21.500	8.0056e-03
10.000	21.750	8.0066e-03
10.000	22.000	8.0075e-03
10.000	22.250	8.0080e-03
10.000	22.500	8.0081e-03
10.000	22.750	8.0082e-03
10.000	23.000	8.0083e-03
10.000	23.250	8.0083e-03
10.000	23.500	8.0083e-03
10.000	23.750	8.0083e-03
10.000	24.000	8.0083e-03
10.250	17.000	1.4227e-02
10.250	17.250	1.4503e-02
10.250	17.500	1.4620e-02
10.250	17.750	1.4509e-02
10.250	18.000	1.4113e-02
10.250	18.250	1.3426e-02
10.250	18.500	1.2386e-02
10.250	18.750	1.0967e-02
10.250	19.000	9.1729e-03
10.250	19.250	7.3567e-03
10.250	19.500	7.4448e-03
10.250	19.750	7.6320e-03
10.250	20.000	7.9580e-03
10.250	20.250	7.9860e-03
10.250	20.500	7.9907e-03
10.250	20.750	7.9946e-03
10.250	21.000	7.9981e-03
10.250	21.250	8.0014e-03
10.250	21.500	8.0040e-03
10.250	21.750	8.0057e-03
10.250	22.000	8.0066e-03
10.250	22.250	8.0076e-03
10.250	22.500	8.0081e-03
10.250	22.750	8.0081e-03
10.250	23.000	8.0082e-03
10.250	23.250	8.0083e-03
10.250	23.500	8.0083e-03
10.250	23.750	8.0083e-03
10.250	24.000	8.0083e-03
10.500	17.000	1.3744e-02
10.500	17.250	1.4115e-02
10.500	17.500	1.4323e-02
10.500	17.750	1.4309e-02
10.500	18.000	1.4062e-02
10.500	18.250	1.3605e-02
10.500	18.500	1.2909e-02
10.500	18.750	1.1835e-02
10.500	19.000	1.0388e-02
10.500	19.250	8.5203e-03
10.500	19.500	7.3392e-03
10.500	19.750	7.4445e-03
10.500	20.000	7.6272e-03
10.500	20.250	7.9495e-03
10.500	20.500	7.9852e-03
10.500	20.750	7.9904e-03
10.500	21.000	7.9946e-03
10.500	21.250	7.9981e-03
10.500	21.500	8.0014e-03
10.500	21.750	8.0041e-03
10.500	22.000	8.0059e-03
10.500	22.250	8.0067e-03
10.500	22.500	8.0076e-03
10.500	22.750	8.0081e-03
10.500	23.000	8.0082e-03
10.500	23.250	8.0082e-03
10.500	23.500	8.0083e-03
10.500	23.750	8.0083e-03
10.500	24.000	8.0083e-03
10.750	17.000	1.3129e-02
10.750	17.250	1.3589e-02
10.750	17.500	1.3858e-02
10.750	17.750	1.3903e-02
10.750	18.000	1.3777e-02
10.750	18.250	1.3544e-02
10.750	18.500	1.3139e-02
10.750	18.750	1.2465e-02
10.750	19.000	1.1409e-02
10.750	19.250	9.8947e-03
10.750	19.500	8.0219e-03
10.750	19.750	7.3402e-03
10.750	20.000	7.4452e-03
10.750	20.250	7.6244e-03
10.750	20.500	7.9427e-03
10.750	20.750	7.9844e-03
10.750	21.000	7.9900e-03
10.750	21.250	7.9945e-03
10.750	21.500	7.9981e-03
10.750	21.750	8.0014e-03
10.750	22.000	8.0041e-03
10.750	22.250	8.0060e-03
10.750	22.500	8.0068e-03
10.750	22.750	8.0076e-03
10.750	23.000	8.0082e-03
10.750	23.250	8.0083e-03
10.750	23.500	8.0083e-03
10.750	23.750	8.0082e-03
10.750	24.000	8.0083e-03
11.000	17.000	1.2365e-02
11.000	17.250	1.2913e-02
11.000	17.500	1.3223e-02
11.000	17.750	1.3300e-02
11.000	18.000	1.3279e-02
11.000	18.250	1.3229e-02
11.000	18.500	1.3103e-02
11.000	18.750	1.2772e-02
11.000	19.000	1.2115e-02
11.000	19.250	1.1026e-02
11.000	19.500	9.4457e-03
11.000	19.750	7.3640e-03
11.000	20.000	7.3418e-03
11.000	20.250	7.4464e-03
11.000	20.500	7.6256e-03
11.000	20.750	7.9412e-03
11.000	21.000	7.9835e-03
11.000	21.250	7.9895e-03
11.000	21.500	7.9943e-03
11.000	21.750	7.9981e-03
11.000	22.000	8.0014e-03
11.000	22.250	8.0041e-03
11.000	22.500	8.0060e-03
11.000	22.750	8.0070e-03
11.000	23.000	8.0077e-03
11.000	23.250	8.0082e-03
11.000	23.500	8.0084e-03
11.000	23.750	8.0084e-03
11.000	24.000	8.0084e-03
11.250	17.000	1.1393e-02
11.250	17.250	1.2058e-02
11.250	17.500	1.2400e-02
11.250	17.750	1.2500e-02
11.250	18.000	1.2569e-02
11.250	18.250	1.2693e-02
11.250	18.500	1.2789e-02
11.250	18.750	1.2740e-02
11.250	19.000	1.2457e-02
11.250	19.250	1.1818e-02
11.250	19.500	1.0705e-02
11.250	19.750	9.0160e-03
11.250	20.000	7.2397e-03
11.250	20.250	7.3430e-03
11.250	20.500	7.4505e-03
11.250	20.750	7.6333e-03
11.250	21.000	7.9507e-03
11.250	21.250	7.9829e-03
11.250	21.500	7.9891e-03
11.250	21.750	7.9941e-03
11.250	22.000	7.9980e-03
11.250	22.250	8.0014e-03
11.250	22.500	8.0040e-03
11.250	22.750	8.0060e-03
11.250	23.000	8.0070e-03
11.250	23.250	8.0079e-03
11.250	23.500	8.0082e-03
11.250	23.750	8.0085e-03
11.250	24.000	8.0085e-03
11.500	17.000	1.0113e-02
11.500	17.250	1.0945e-02
11.500	17.500	1.1352e-02
11.500	17.750	1.1490e-02
11.500	18.000	1.1664e-02
11.500	18.250	1.1938e-02
11.500	18.500	1.2213e-02
11.500	18.750	1.2405e-02
11.500	19.000	1.2443e-02
11.500	19.250	1.2195e-02
11.500	19.500	1.1555e-02
11.500	19.750	1.0396e-02
11.500	20.000	8.6136e-03
11.500	20.250	7.2157e-03
11.500	20.500	7.3455e-03
11.500	20.750	7.4568e-03
11.500	21.000	7.6541e-03
11.500	21.250	7.9660e-03
11.500	21.500	7.9821e-03
11.500	21.750	7.9886e-03
11.500	22.000	7.9938e-03
11.500	22.250	7.9979e-03
11.500	22.500	8.0013e-03
11.500	22.750	8.0040e-03
11.500	23.000	8.0060e-03
11.500	23.250	8.0070e-03
11.500	23.500	8.0080e-03
11.500	23.750	8.0083e-03
11.500	24.000	8.0085e-03
11.750	17.000	8.4356e-03
11.750	17.250	9.4756e-03
11.750	17.500	1.0020e-02
11.750	17.750	1.0264e-02
11.750	18.000	1.0577e-02
11.750	18.250	1.0980e-02
11.750	18.500	1.1407e-02
11.750	18.750	1.1799e-02
11.750	19.000	1.2077e-02
11.750	19.250	1.2170e-02
11.750	19.500	1.1951e-02
11.750	19.750	1.1318e-02
11.750	20.000	1.0117e-02
11.750	20.250	8.2531e-03
11.750	20.500	7.2535e-03
11.750	20.750	7.3507e-03
11.750	21.000	7.4736e-03
11.750	21.250	7.7049e-03
11.750	21.500	7.9699e-03
11.750	21.750	7.9812e-03
11.750	22.000	7.9881e-03
11.750	22.250	7.9936e-03
11.750	22.500	7.9979e-03
11.750	22.750	8.0012e-03
11.750	23.000	8.0040e-03
11.750	23.250	8.0060e-03
11.750	23.500	8.0070e-03
11.750	23.750	8.0080e-03
11.750	24.000	8.0085e-03
12.000	17.000	6.4123e-03
12.000	17.250	7.6200e-03
12.000	17.500	8.3676e-03
12.000	17.750	8.8384e-03
12.000	18.000	9.3091e-03
12.000	18.250	9.8214e-03
12.000	18.500	1.0373e-02
12.000	18.750	1.0915e-02
12.000	19.000	1.1397e-02
12.000	19.250	1.1766e-02
12.000	19.500	1.1911e-02
12.000	19.750	1.1728e-02
12.000	20.000	1.1097e-02
12.000	20.250	9.8742e-03
12.000	20.500	7.9483e-03
12.000	20.750	7.2516e-03
12.000	21.000	7.3625e-03
12.000	21.250	7.5193e-03
12.000	21.500	7.7951e-03
12.000	21.750	7.9699e-03
12.000	22.000	7.9807e-03
12.000	22.250	7.9879e-03
12.000	22.500	7.9933e-03
12.000	22.750	7.9977e-03
12.000	23.000	8.0012e-03
12.000	23.250	8.0040e-03
12.000	23.500	8.0060e-03
12.000	23.750	8.0070e-03
12.000	24.000	8.0080e-03
12.250	17.000	4.3308e-03
12.250	17.250	5.5492e-03
12.250	17.500	6.5034e-03
12.250	17.750	7.2476e-03
12.250	18.000	7.8687e-03
12.250	18.250	8.4608e-03
12.250	18.500	9.1060e-03
12.250	18.750	9.7722e-03
12.250	19.000	1.0428e-02
12.250	19.250	1.1018e-02
12.250	19.500	1.1468e-02
12.250	19.750	1.1662e-02
12.250	20.000	1.1521e-02
12.250	20.250	1.0900e-02
12.250	20.500	9.6508e-03
12.250	20.750	7.6506e-03
12.250	21.000	7.2556e-03
12.250	21.250	7.3900e-03
12.250	21.500	7.5874e-03
12.250	21.750	7.9025e-03
12.250	22.000	7.9691e-03
12.250	22.250	7.9792e-03
12.250	22.500	7.9870e-03
12.250	22.750	7.9930e-03
12.250	23.000	7.9975e-03
12.250	23.250	8.0011e-03
12.250	23.500	8.0039e-03
12.250	23.750	8.0060e-03
12.250	24.000	8.0070e-03
12.500	17.000	2.6966e-03
12.500	17.250	3.7547e-03
12.500	17.500	4.7444e-03
12.500	17.750	5.5715e-03
12.500	18.000	6.2687e-03
12.500	18.250	6.9272e-03
12.500	18.500	7.6210e-03
12.500	18.750	8.3923e-03
12.500	19.000	9.1993e-03
12.500	19.250	9.9721e-03
12.500	19.500	1.0661e-02
12.500	19.750	1.1182e-02
12.500	20.000	1.1431e-02
12.500	20.250	1.1324e-02
12.500	20.500	1.0709e-02
12.500	20.750	9.4542e-03
12.500	21.000	7.4655e-03
12.500	21.250	7.2738e-03
12.500	21.500	7.4341e-03
12.500	21.750	7.6710e-03
12.500	22.000	7.9523e-03
12.500	22.250	7.9678e-03
12.500	22.500	7.9779e-03
12.500	22.750	7.9863e-03
12.500	23.000	7.9926e-03
12.500	23.250	7.9974e-03
12.500	23.500	8.0009e-03
12.500	23.750	8.0038e-03
12.500	24.000	8.0060e-03
12.750	17.000	1.6940e-03
12.750	17.250	2.4708e-03
12.750	17.500	3.2464e-03
12.750	17.750	3.9339e-03
12.750	18.000	4.5899e-03
12.750	18.250	5.2621e-03
12.750	18.500	5.9974e-03
12.750	18.750	6.8216e-03
12.750	19.000	7.7333e-03
12.750	19.250	8.6658e-03
12.750	19.500	9.5492e-03
12.750	19.750	1.0314e-02
12.750	20.000	1.0900e-02
12.750	20.250	1.1201e-02
12.750	20.500	1.1122e-02
12.750	20.750	1.0531e-02
12.750	21.000	9.2336e-03
12.750	21.250	7.1911e-03
12.750	21.500	7.2988e-03
12.750	21.750	7.4962e-03
12.750	22.000	7.7604e-03
12.750	22.250	7.9532e-03
12.750	22.500	7.9667e-03
12.750	22.750	7.9771e-03
12.750	23.000	7.9856e-03
12.750	23.250	7.9920e-03
12.750	23.500	7.9970e-03
12.750	23.750	8.0007e-03
12.750	24.000	8.0037e-03
13.000	17.000	1.0235e-03
13.000	17.250	1.4744e-03
13.000	17.500	1.9709e-03
13.000	17.750	2.4784e-03
13.000	18.000	3.0111e-03
13.000	18.250	3.6249e-03
13.000	18.500	4.3393e-03
13.000	18.750	5.1618e-03
13.000	19.000	6.1046e-03
13.000	19.250	7.1366e-03
13.000	19.500	8.1649e-03
13.000	19.750	9.1301e-03
13.000	20.000	9.9657e-03
13.000	20.250	1.0614e-02
13.000	20.500	1.0966e-02
13.000	20.750	1.0919e-02
13.000	21.000	1.0326e-02
13.000	21.250	8.9984e-03
13.000	21.500	7.0526e-03
13.000	21.750	7.3402e-03
13.000	22.000	7.5509e-03
13.000	22.250	7.8277e-03
13.000	22.500	7.9529e-03
13.000	22.750	7.9659e-03
13.000	23.000	7.9765e-03
13.000	23.250	7.9849e-03
13.000	23.500	7.9916e-03
13.000	23.750	7.9965e-03
13.000	24.000	8.0004e-03
13.250	17.000	6.4519e-04
13.250	17.250	8.9877e-04
13.250	17.500	1.1477e-03
13.250	17.750	1.4223e-03
13.250	18.000	1.7660e-03
13.250	18.250	2.2210e-03
13.250	18.500	2.8153e-03
13.250	18.750	3.5608e-03
13.250	19.000	4.4509e-03
13.250	19.250	5.4771e-03
13.250	19.500	6.5780e-03
13.250	19.750	7.6821e-03
13.250	20.000	8.7107e-03
13.250	20.250	9.6017e-03
13.250	20.500	1.0304e-02
13.250	20.750	1.0703e-02
13.250	21.000	1.0679e-02
13.250	21.250	1.0093e-02
13.250	21.500	8.8282e-03
13.250	21.750	7.0856e-03
13.250	22.000	7.3568e-03
13.250	22.250	7.5913e-03
13.250	22.500	7.8491e-03
13.250	22.750	7.9523e-03
13.250	23.000	7.9650e-03
13.250	23.250	7.9753e-03
13.250	23.500	7.9841e-03
13.250	23.750	7.9910e-03
13.250	24.000	7.9960e-03
13.500	17.000	4.2733e-04
13.500	17.250	5.7547e-04
13.500	17.500	7.1202e-04
13.500	17.750	8.3959e-04
13.500	18.000	1.0109e-03
13.500	18.250	1.2691e-03
13.500	18.500	1.6541e-03
13.500	18.750	2.2081e-03
13.500	19.000	2.9433e-03
13.500	19.250	3.8537e-03
13.500	19.500	4.9021e-03
13.500	19.750	6.0370e-03
13.500	20.000	7.1737e-03
13.500	20.250	8.2574e-03
13.500	20.500	9.2027e-03
13.500	20.750	9.9553e-03
13.500	21.000	1.0386e-02
13.500	21.250	1.0390e-02
13.500	21.500	9.8677e-03
13.500	21.750	8.5853e-03
13.500	22.000	7.1063e-03
13.500	22.250	7.3556e-03
13.500	22.500	7.5816e-03
13.500	22.750	7.8372e-03
13.500	23.000	7.9509e-03
13.500	23.250	7.9637e-03
13.500	23.500	7.9747e-03
13.500	23.750	7.9835e-03
13.500	24.000	7.9903e-03
13.750	17.000	2.9827e-04
13.750	17.250	3.9037e-04
13.750	17.500	4.6963e-04
13.750	17.750	5.3621e-04
13.750	18.000	6.2230e-04
13.750	18.250	7.6140e-04
13.750	18.500	9.7317e-04
13.750	18.750	1.2916e-03
13.750	19.000	1.7709e-03
13.750	19.250	2.4560e-03
13.750	19.500	3.3366e-03
13.750	19.750	4.3711e-03
13.750	20.000	5.5035e-03
13.750	20.250	6.6562e-03
13.750	20.500	7.7690e-03
13.750	20.750	8.7551e-03
13.750	21.000	9.5347e-03
13.750	21.250	9.9840e-03
13.750	21.500	1.0060e-02
13.750	21.750	9.4866e-03
13.750	22.000	8.2436e-03
13.750	22.250	7.1237e-03
13.750	22.500	7.3309e-03
13.750	22.750	7.5703e-03
13.750	23.000	7.8312e-03
13.750	23.250	7.9486e-03
13.750	23.500	7.9619e-03
13.750	23.750	7.9734e-03
13.750	24.000	7.9824e-03
14.000	17.000	2.1745e-04
14.000	17.250	2.8099e-04
14.000	17.500	3.3226e-04
14.000	17.750	3.6914e-04
14.000	18.000	4.1514e-04
14.000	18.250	4.9128e-04
14.000	18.500	6.0864e-04
14.000	18.750	7.8617e-04
14.000	19.000	1.0522e-03
14.000	19.250	1.4587e-03
14.000	19.500	2.0672e-03
14.000	19.750	2.8875e-03
14.000	20.000	3.8794e-03
14.000	20.250	4.9908e-03
14.000	20.500	6.1361e-03
14.000	20.750	7.2492e-03
14.000	21.000	8.2523e-03
14.000	21.250	9.0359e-03
14.000	21.500	9.5510e-03
14.000	21.750	9.5425e-03
14.000	22.000	8.9256e-03
14.000	22.250	7.7658e-03
14.000	22.500	7.1319e-03
14.000	22.750	7.3166e-03
14.000	23.000	7.5574e-03
14.000	23.250	7.8418e-03
14.000	23.500	7.9449e-03
14.000	23.750	7.9588e-03
14.000	24.000	7.9713e-03
