InwC 1900.00A  relative to Inci 1215.00A scaled to 1215A.
Hden   Phi(H)  Eq_Width (A)
 7.000	17.000	7.6000e-03
 7.000	17.250	7.6033e-03
 7.000	17.500	7.6065e-03
 7.000	17.750	7.6097e-03
 7.000	18.000	7.6130e-03
 7.000	18.250	7.6157e-03
 7.000	18.500	7.6176e-03
 7.000	18.750	7.6186e-03
 7.000	19.000	7.6195e-03
 7.000	19.250	7.6202e-03
 7.000	19.500	7.6204e-03
 7.000	19.750	7.6205e-03
 7.000	20.000	7.6206e-03
 7.000	20.250	7.6207e-03
 7.000	20.500	7.6207e-03
 7.000	20.750	7.6207e-03
 7.000	21.000	7.6207e-03
 7.000	21.250	7.6207e-03
 7.000	21.500	7.6208e-03
 7.000	21.750	7.6207e-03
 7.000	22.000	7.6207e-03
 7.000	22.250	7.6207e-03
 7.000	22.500	7.6207e-03
 7.000	22.750	7.6209e-03
 7.000	23.000	7.6209e-03
 7.000	23.250	7.6207e-03
 7.000	23.500	7.6207e-03
 7.000	23.750	7.6207e-03
 7.000	24.000	7.6207e-03
 7.250	17.000	7.5870e-03
 7.250	17.250	7.6000e-03
 7.250	17.500	7.6033e-03
 7.250	17.750	7.6065e-03
 7.250	18.000	7.6098e-03
 7.250	18.250	7.6130e-03
 7.250	18.500	7.6157e-03
 7.250	18.750	7.6176e-03
 7.250	19.000	7.6186e-03
 7.250	19.250	7.6195e-03
 7.250	19.500	7.6202e-03
 7.250	19.750	7.6203e-03
 7.250	20.000	7.6205e-03
 7.250	20.250	7.6206e-03
 7.250	20.500	7.6206e-03
 7.250	20.750	7.6207e-03
 7.250	21.000	7.6207e-03
 7.250	21.250	7.6207e-03
 7.250	21.500	7.6207e-03
 7.250	21.750	7.6221e-03
 7.250	22.000	7.6207e-03
 7.250	22.250	7.6207e-03
 7.250	22.500	7.6207e-03
 7.250	22.750	7.6214e-03
 7.250	23.000	7.6214e-03
 7.250	23.250	7.6207e-03
 7.250	23.500	7.6207e-03
 7.250	23.750	7.6207e-03
 7.250	24.000	7.6207e-03
 7.500	17.000	7.2561e-03
 7.500	17.250	7.5877e-03
 7.500	17.500	7.6000e-03
 7.500	17.750	7.6033e-03
 7.500	18.000	7.6065e-03
 7.500	18.250	7.6098e-03
 7.500	18.500	7.6130e-03
 7.500	18.750	7.6157e-03
 7.500	19.000	7.6176e-03
 7.500	19.250	7.6186e-03
 7.500	19.500	7.6195e-03
 7.500	19.750	7.6202e-03
 7.500	20.000	7.6203e-03
 7.500	20.250	7.6205e-03
 7.500	20.500	7.6206e-03
 7.500	20.750	7.6206e-03
 7.500	21.000	7.6206e-03
 7.500	21.250	7.6206e-03
 7.500	21.500	7.6207e-03
 7.500	21.750	7.6207e-03
 7.500	22.000	7.6207e-03
 7.500	22.250	7.6207e-03
 7.500	22.500	7.6207e-03
 7.500	22.750	7.6207e-03
 7.500	23.000	7.6211e-03
 7.500	23.250	7.6214e-03
 7.500	23.500	7.6207e-03
 7.500	23.750	7.6216e-03
 7.500	24.000	7.6207e-03
 7.750	17.000	6.7142e-03
 7.750	17.250	7.2578e-03
 7.750	17.500	7.5881e-03
 7.750	17.750	7.6000e-03
 7.750	18.000	7.6033e-03
 7.750	18.250	7.6066e-03
 7.750	18.500	7.6098e-03
 7.750	18.750	7.6130e-03
 7.750	19.000	7.6157e-03
 7.750	19.250	7.6176e-03
 7.750	19.500	7.6186e-03
 7.750	19.750	7.6195e-03
 7.750	20.000	7.6202e-03
 7.750	20.250	7.6204e-03
 7.750	20.500	7.6205e-03
 7.750	20.750	7.6206e-03
 7.750	21.000	7.6206e-03
 7.750	21.250	7.6206e-03
 7.750	21.500	7.6206e-03
 7.750	21.750	7.6206e-03
 7.750	22.000	7.6206e-03
 7.750	22.250	7.6207e-03
 7.750	22.500	7.6207e-03
 7.750	22.750	7.6208e-03
 7.750	23.000	7.6209e-03
 7.750	23.250	7.6207e-03
 7.750	23.500	7.6214e-03
 7.750	23.750	7.6214e-03
 7.750	24.000	7.6207e-03
 8.000	17.000	5.0048e-03
 8.000	17.250	6.6784e-03
 8.000	17.500	7.2547e-03
 8.000	17.750	7.5868e-03
 8.000	18.000	7.6000e-03
 8.000	18.250	7.6033e-03
 8.000	18.500	7.6066e-03
 8.000	18.750	7.6098e-03
 8.000	19.000	7.6130e-03
 8.000	19.250	7.6157e-03
 8.000	19.500	7.6176e-03
 8.000	19.750	7.6186e-03
 8.000	20.000	7.6195e-03
 8.000	20.250	7.6202e-03
 8.000	20.500	7.6203e-03
 8.000	20.750	7.6205e-03
 8.000	21.000	7.6205e-03
 8.000	21.250	7.6206e-03
 8.000	21.500	7.6206e-03
 8.000	21.750	7.6206e-03
 8.000	22.000	7.6206e-03
 8.000	22.250	7.6206e-03
 8.000	22.500	7.6206e-03
 8.000	22.750	7.6208e-03
 8.000	23.000	7.6206e-03
 8.000	23.250	7.6211e-03
 8.000	23.500	7.6207e-03
 8.000	23.750	7.6207e-03
 8.000	24.000	7.6207e-03
 8.250	17.000	3.7872e-03
 8.250	17.250	5.0187e-03
 8.250	17.500	6.6839e-03
 8.250	17.750	7.2558e-03
 8.250	18.000	7.5872e-03
 8.250	18.250	7.5999e-03
 8.250	18.500	7.6033e-03
 8.250	18.750	7.6066e-03
 8.250	19.000	7.6099e-03
 8.250	19.250	7.6130e-03
 8.250	19.500	7.6157e-03
 8.250	19.750	7.6176e-03
 8.250	20.000	7.6186e-03
 8.250	20.250	7.6195e-03
 8.250	20.500	7.6202e-03
 8.250	20.750	7.6204e-03
 8.250	21.000	7.6205e-03
 8.250	21.250	7.6205e-03
 8.250	21.500	7.6206e-03
 8.250	21.750	7.6206e-03
 8.250	22.000	7.6206e-03
 8.250	22.250	7.6206e-03
 8.250	22.500	7.6206e-03
 8.250	22.750	7.6207e-03
 8.250	23.000	7.6206e-03
 8.250	23.250	7.6226e-03
 8.250	23.500	7.6206e-03
 8.250	23.750	7.6206e-03
 8.250	24.000	7.6212e-03
 8.500	17.000	2.9334e-03
 8.500	17.250	3.8042e-03
 8.500	17.500	5.0328e-03
 8.500	17.750	6.6902e-03
 8.500	18.000	7.2565e-03
 8.500	18.250	7.5873e-03
 8.500	18.500	7.5998e-03
 8.500	18.750	7.6033e-03
 8.500	19.000	7.6067e-03
 8.500	19.250	7.6099e-03
 8.500	19.500	7.6130e-03
 8.500	19.750	7.6157e-03
 8.500	20.000	7.6176e-03
 8.500	20.250	7.6186e-03
 8.500	20.500	7.6195e-03
 8.500	20.750	7.6202e-03
 8.500	21.000	7.6203e-03
 8.500	21.250	7.6205e-03
 8.500	21.500	7.6205e-03
 8.500	21.750	7.6206e-03
 8.500	22.000	7.6206e-03
 8.500	22.250	7.6206e-03
 8.500	22.500	7.6206e-03
 8.500	22.750	7.6206e-03
 8.500	23.000	7.6206e-03
 8.500	23.250	7.6207e-03
 8.500	23.500	7.6206e-03
 8.500	23.750	7.6206e-03
 8.500	24.000	7.6206e-03
 8.750	17.000	2.3390e-03
 8.750	17.250	2.9520e-03
 8.750	17.500	3.8279e-03
 8.750	17.750	5.0396e-03
 8.750	18.000	6.7019e-03
 8.750	18.250	7.2567e-03
 8.750	18.500	7.5872e-03
 8.750	18.750	7.5998e-03
 8.750	19.000	7.6033e-03
 8.750	19.250	7.6067e-03
 8.750	19.500	7.6099e-03
 8.750	19.750	7.6131e-03
 8.750	20.000	7.6157e-03
 8.750	20.250	7.6176e-03
 8.750	20.500	7.6186e-03
 8.750	20.750	7.6195e-03
 8.750	21.000	7.6202e-03
 8.750	21.250	7.6204e-03
 8.750	21.500	7.6205e-03
 8.750	21.750	7.6205e-03
 8.750	22.000	7.6206e-03
 8.750	22.250	7.6206e-03
 8.750	22.500	7.6206e-03
 8.750	22.750	7.6206e-03
 8.750	23.000	7.6213e-03
 8.750	23.250	7.6206e-03
 8.750	23.500	7.6207e-03
 8.750	23.750	7.6206e-03
 8.750	24.000	7.6206e-03
 9.000	17.000	1.9230e-03
 9.000	17.250	2.3534e-03
 9.000	17.500	2.9779e-03
 9.000	17.750	3.8697e-03
 9.000	18.000	5.0884e-03
 9.000	18.250	6.7443e-03
 9.000	18.500	7.2560e-03
 9.000	18.750	7.5865e-03
 9.000	19.000	7.5995e-03
 9.000	19.250	7.6033e-03
 9.000	19.500	7.6067e-03
 9.000	19.750	7.6100e-03
 9.000	20.000	7.6131e-03
 9.000	20.250	7.6157e-03
 9.000	20.500	7.6176e-03
 9.000	20.750	7.6186e-03
 9.000	21.000	7.6195e-03
 9.000	21.250	7.6202e-03
 9.000	21.500	7.6203e-03
 9.000	21.750	7.6205e-03
 9.000	22.000	7.6205e-03
 9.000	22.250	7.6205e-03
 9.000	22.500	7.6206e-03
 9.000	22.750	7.6206e-03
 9.000	23.000	7.6206e-03
 9.000	23.250	7.6206e-03
 9.000	23.500	7.6206e-03
 9.000	23.750	7.6206e-03
 9.000	24.000	7.6207e-03
 9.250	17.000	1.6328e-03
 9.250	17.250	1.9337e-03
 9.250	17.500	2.3780e-03
 9.250	17.750	3.0300e-03
 9.250	18.000	3.9483e-03
 9.250	18.250	5.1974e-03
 9.250	18.500	6.8484e-03
 9.250	18.750	7.2538e-03
 9.250	19.000	7.5852e-03
 9.250	19.250	7.5992e-03
 9.250	19.500	7.6031e-03
 9.250	19.750	7.6067e-03
 9.250	20.000	7.6100e-03
 9.250	20.250	7.6131e-03
 9.250	20.500	7.6158e-03
 9.250	20.750	7.6176e-03
 9.250	21.000	7.6186e-03
 9.250	21.250	7.6195e-03
 9.250	21.500	7.6198e-03
 9.250	21.750	7.6198e-03
 9.250	22.000	7.6198e-03
 9.250	22.250	7.6200e-03
 9.250	22.500	7.6202e-03
 9.250	22.750	7.6202e-03
 9.250	23.000	7.6203e-03
 9.250	23.250	7.6204e-03
 9.250	23.500	7.6204e-03
 9.250	23.750	7.6204e-03
 9.250	24.000	7.6205e-03
 9.500	17.000	1.4316e-03
 9.500	17.250	1.6405e-03
 9.500	17.500	1.9552e-03
 9.500	17.750	2.4309e-03
 9.500	18.000	3.1277e-03
 9.500	18.250	4.1164e-03
 9.500	18.500	5.4486e-03
 9.500	18.750	7.0147e-03
 9.500	19.000	7.2498e-03
 9.500	19.250	7.5826e-03
 9.500	19.500	7.5986e-03
 9.500	19.750	7.6030e-03
 9.500	20.000	7.6067e-03
 9.500	20.250	7.6100e-03
 9.500	20.500	7.6132e-03
 9.500	20.750	7.6154e-03
 9.500	21.000	7.6172e-03
 9.500	21.250	7.6181e-03
 9.500	21.500	7.6189e-03
 9.500	21.750	7.6194e-03
 9.500	22.000	7.6196e-03
 9.500	22.250	7.6198e-03
 9.500	22.500	7.6198e-03
 9.500	22.750	7.6198e-03
 9.500	23.000	7.6198e-03
 9.500	23.250	7.6198e-03
 9.500	23.500	7.6198e-03
 9.500	23.750	7.6198e-03
 9.500	24.000	7.6198e-03
 9.750	17.000	1.2897e-03
 9.750	17.250	1.4356e-03
 9.750	17.500	1.6565e-03
 9.750	17.750	2.0022e-03
 9.750	18.000	2.5404e-03
 9.750	18.250	3.3264e-03
 9.750	18.500	4.4318e-03
 9.750	18.750	5.9243e-03
 9.750	19.000	7.0127e-03
 9.750	19.250	7.2433e-03
 9.750	19.500	7.5782e-03
 9.750	19.750	7.5975e-03
 9.750	20.000	7.6027e-03
 9.750	20.250	7.6067e-03
 9.750	20.500	7.6100e-03
 9.750	20.750	7.6131e-03
 9.750	21.000	7.6155e-03
 9.750	21.250	7.6172e-03
 9.750	21.500	7.6181e-03
 9.750	21.750	7.6190e-03
 9.750	22.000	7.6194e-03
 9.750	22.250	7.6197e-03
 9.750	22.500	7.6198e-03
 9.750	22.750	7.6198e-03
 9.750	23.000	7.6198e-03
 9.750	23.250	7.6198e-03
 9.750	23.500	7.6198e-03
 9.750	23.750	7.6198e-03
 9.750	24.000	7.6198e-03
10.000	17.000	1.1903e-03
10.000	17.250	1.2913e-03
10.000	17.500	1.4466e-03
10.000	17.750	1.6972e-03
10.000	18.000	2.1093e-03
10.000	18.250	2.7337e-03
10.000	18.500	3.6244e-03
10.000	18.750	4.8317e-03
10.000	19.000	6.3198e-03
10.000	19.250	7.0095e-03
10.000	19.500	7.2347e-03
10.000	19.750	7.5708e-03
10.000	20.000	7.5959e-03
10.000	20.250	7.6023e-03
10.000	20.500	7.6066e-03
10.000	20.750	7.6100e-03
10.000	21.000	7.6132e-03
10.000	21.250	7.6156e-03
10.000	21.500	7.6172e-03
10.000	21.750	7.6182e-03
10.000	22.000	7.6190e-03
10.000	22.250	7.6195e-03
10.000	22.500	7.6197e-03
10.000	22.750	7.6198e-03
10.000	23.000	7.6198e-03
10.000	23.250	7.6198e-03
10.000	23.500	7.6198e-03
10.000	23.750	7.6198e-03
10.000	24.000	7.6198e-03
10.250	17.000	1.1209e-03
10.250	17.250	1.1906e-03
10.250	17.500	1.2998e-03
10.250	17.750	1.4827e-03
10.250	18.000	1.7923e-03
10.250	18.250	2.2695e-03
10.250	18.500	2.9702e-03
10.250	18.750	3.9524e-03
10.250	19.000	5.3055e-03
10.250	19.250	6.8304e-03
10.250	19.500	7.0076e-03
10.250	19.750	7.2259e-03
10.250	20.000	7.5606e-03
10.250	20.250	7.5936e-03
10.250	20.500	7.6016e-03
10.250	20.750	7.6064e-03
10.250	21.000	7.6100e-03
10.250	21.250	7.6132e-03
10.250	21.500	7.6157e-03
10.250	21.750	7.6174e-03
10.250	22.000	7.6182e-03
10.250	22.250	7.6191e-03
10.250	22.500	7.6196e-03
10.250	22.750	7.6197e-03
10.250	23.000	7.6198e-03
10.250	23.250	7.6198e-03
10.250	23.500	7.6198e-03
10.250	23.750	7.6198e-03
10.250	24.000	7.6198e-03
10.500	17.000	1.0723e-03
10.500	17.250	1.1204e-03
10.500	17.500	1.1972e-03
10.500	17.750	1.3309e-03
10.500	18.000	1.5616e-03
10.500	18.250	1.9246e-03
10.500	18.500	2.4525e-03
10.500	18.750	3.2315e-03
10.500	19.000	4.3061e-03
10.500	19.250	5.7652e-03
10.500	19.500	6.8633e-03
10.500	19.750	7.0078e-03
10.500	20.000	7.2186e-03
10.500	20.250	7.5486e-03
10.500	20.500	7.5905e-03
10.500	20.750	7.6003e-03
10.500	21.000	7.6062e-03
10.500	21.250	7.6100e-03
10.500	21.500	7.6132e-03
10.500	21.750	7.6157e-03
10.500	22.000	7.6175e-03
10.500	22.250	7.6183e-03
10.500	22.500	7.6191e-03
10.500	22.750	7.6197e-03
10.500	23.000	7.6198e-03
10.500	23.250	7.6198e-03
10.500	23.500	7.6198e-03
10.500	23.750	7.6198e-03
10.500	24.000	7.6198e-03
10.750	17.000	1.0380e-03
10.750	17.250	1.0709e-03
10.750	17.500	1.1252e-03
10.750	17.750	1.2225e-03
10.750	18.000	1.3933e-03
10.750	18.250	1.6641e-03
10.750	18.500	2.0686e-03
10.750	18.750	2.6501e-03
10.750	19.000	3.4696e-03
10.750	19.250	4.6174e-03
10.750	19.500	6.1117e-03
10.750	19.750	6.8673e-03
10.750	20.000	7.0091e-03
10.750	20.250	7.2135e-03
10.750	20.500	7.5382e-03
10.750	20.750	7.5874e-03
10.750	21.000	7.5988e-03
10.750	21.250	7.6058e-03
10.750	21.500	7.6099e-03
10.750	21.750	7.6131e-03
10.750	22.000	7.6157e-03
10.750	22.250	7.6176e-03
10.750	22.500	7.6184e-03
10.750	22.750	7.6191e-03
10.750	23.000	7.6197e-03
10.750	23.250	7.6198e-03
10.750	23.500	7.6198e-03
10.750	23.750	7.6198e-03
10.750	24.000	7.6198e-03
11.000	17.000	1.0135e-03
11.000	17.250	1.0355e-03
11.000	17.500	1.0730e-03
11.000	17.750	1.1440e-03
11.000	18.000	1.2695e-03
11.000	18.250	1.4695e-03
11.000	18.500	1.7685e-03
11.000	18.750	2.1991e-03
11.000	19.000	2.8132e-03
11.000	19.250	3.6829e-03
11.000	19.500	4.8985e-03
11.000	19.750	6.5078e-03
11.000	20.000	6.8681e-03
11.000	20.250	7.0086e-03
11.000	20.500	7.2125e-03
11.000	20.750	7.5341e-03
11.000	21.000	7.5836e-03
11.000	21.250	7.5970e-03
11.000	21.500	7.6051e-03
11.000	21.750	7.6096e-03
11.000	22.000	7.6130e-03
11.000	22.250	7.6157e-03
11.000	22.500	7.6176e-03
11.000	22.750	7.6185e-03
11.000	23.000	7.6193e-03
11.000	23.250	7.6198e-03
11.000	23.500	7.6199e-03
11.000	23.750	7.6199e-03
11.000	24.000	7.6198e-03
11.250	17.000	9.9564e-04
11.250	17.250	1.0095e-03
11.250	17.500	1.0353e-03
11.250	17.750	1.0865e-03
11.250	18.000	1.1784e-03
11.250	18.250	1.3234e-03
11.250	18.500	1.5397e-03
11.250	18.750	1.8610e-03
11.250	19.000	2.3086e-03
11.250	19.250	2.9454e-03
11.250	19.500	3.8532e-03
11.250	19.750	5.1426e-03
11.250	20.000	6.6030e-03
11.250	20.250	6.8681e-03
11.250	20.500	7.0151e-03
11.250	20.750	7.2173e-03
11.250	21.000	7.5388e-03
11.250	21.250	7.5811e-03
11.250	21.500	7.5951e-03
11.250	21.750	7.6042e-03
11.250	22.000	7.6093e-03
11.250	22.250	7.6128e-03
11.250	22.500	7.6156e-03
11.250	22.750	7.6176e-03
11.250	23.000	7.6185e-03
11.250	23.250	7.6194e-03
11.250	23.500	7.6198e-03
11.250	23.750	7.6199e-03
11.250	24.000	7.6200e-03
11.500	17.000	9.8255e-04
11.500	17.250	9.9086e-04
11.500	17.500	1.0081e-03
11.500	17.750	1.0447e-03
11.500	18.000	1.1109e-03
11.500	18.250	1.2155e-03
11.500	18.500	1.3716e-03
11.500	18.750	1.6029e-03
11.500	19.000	1.9285e-03
11.500	19.250	2.3909e-03
11.500	19.500	3.0512e-03
11.500	19.750	4.0005e-03
11.500	20.000	5.3589e-03
11.500	20.250	6.6477e-03
11.500	20.500	6.8689e-03
11.500	20.750	7.0174e-03
11.500	21.000	7.2324e-03
11.500	21.250	7.5486e-03
11.500	21.500	7.5774e-03
11.500	21.750	7.5932e-03
11.500	22.000	7.6033e-03
11.500	22.250	7.6089e-03
11.500	22.500	7.6127e-03
11.500	22.750	7.6156e-03
11.500	23.000	7.6175e-03
11.500	23.250	7.6185e-03
11.500	23.500	7.6195e-03
11.500	23.750	7.6198e-03
11.500	24.000	7.6199e-03
11.750	17.000	9.7292e-04
11.750	17.250	9.7737e-04
11.750	17.500	9.8872e-04
11.750	17.750	1.0145e-03
11.750	18.000	1.0612e-03
11.750	18.250	1.1357e-03
11.750	18.500	1.2477e-03
11.750	18.750	1.4105e-03
11.750	19.000	1.6495e-03
11.750	19.250	1.9831e-03
11.750	19.500	2.4591e-03
11.750	19.750	3.1360e-03
11.750	20.000	4.1242e-03
11.750	20.250	5.5419e-03
11.750	20.500	6.6816e-03
11.750	20.750	6.8734e-03
11.750	21.000	7.0300e-03
11.750	21.250	7.2737e-03
11.750	21.500	7.5474e-03
11.750	21.750	7.5737e-03
11.750	22.000	7.5907e-03
11.750	22.250	7.6022e-03
11.750	22.500	7.6084e-03
11.750	22.750	7.6123e-03
11.750	23.000	7.6154e-03
11.750	23.250	7.6175e-03
11.750	23.500	7.6185e-03
11.750	23.750	7.6195e-03
11.750	24.000	7.6200e-03
12.000	17.000	9.6642e-04
12.000	17.250	9.6798e-04
12.000	17.500	9.7506e-04
12.000	17.750	9.9276e-04
12.000	18.000	1.0253e-03
12.000	18.250	1.0779e-03
12.000	18.500	1.1577e-03
12.000	18.750	1.2754e-03
12.000	19.000	1.4459e-03
12.000	19.250	1.6872e-03
12.000	19.500	2.0289e-03
12.000	19.750	2.5136e-03
12.000	20.000	3.2129e-03
12.000	20.250	4.2277e-03
12.000	20.500	5.6947e-03
12.000	20.750	6.6680e-03
12.000	21.000	6.8812e-03
12.000	21.250	7.0697e-03
12.000	21.500	7.3523e-03
12.000	21.750	7.5423e-03
12.000	22.000	7.5708e-03
12.000	22.250	7.5892e-03
12.000	22.500	7.6011e-03
12.000	22.750	7.6079e-03
12.000	23.000	7.6120e-03
12.000	23.250	7.6152e-03
12.000	23.500	7.6174e-03
12.000	23.750	7.6185e-03
12.000	24.000	7.6195e-03
12.250	17.000	9.6230e-04
12.250	17.250	9.6198e-04
12.250	17.500	9.6593e-04
12.250	17.750	9.7770e-04
12.250	18.000	1.0002e-03
12.250	18.250	1.0372e-03
12.250	18.500	1.0937e-03
12.250	18.750	1.1787e-03
12.250	19.000	1.3009e-03
12.250	19.250	1.4744e-03
12.250	19.500	1.7195e-03
12.250	19.750	2.0686e-03
12.250	20.000	2.5598e-03
12.250	20.250	3.2737e-03
12.250	20.500	4.3216e-03
12.250	20.750	5.8386e-03
12.250	21.000	6.6612e-03
12.250	21.250	6.9038e-03
12.250	21.500	7.1283e-03
12.250	21.750	7.4478e-03
12.250	22.000	7.5360e-03
12.250	22.250	7.5638e-03
12.250	22.500	7.5854e-03
12.250	22.750	7.5995e-03
12.250	23.000	7.6072e-03
12.250	23.250	7.6116e-03
12.250	23.500	7.6150e-03
12.250	23.750	7.6174e-03
12.250	24.000	7.6185e-03
12.500	17.000	9.5967e-04
12.500	17.250	9.5860e-04
12.500	17.500	9.6049e-04
12.500	17.750	9.6798e-04
12.500	18.000	9.8305e-04
12.500	18.250	1.0086e-03
12.500	18.500	1.0489e-03
12.500	18.750	1.1093e-03
12.500	19.000	1.1968e-03
12.500	19.250	1.3221e-03
12.500	19.500	1.4968e-03
12.500	19.750	1.7454e-03
12.500	20.000	2.0982e-03
12.500	20.250	2.5993e-03
12.500	20.500	3.3360e-03
12.500	20.750	4.4129e-03
12.500	21.000	5.9643e-03
12.500	21.250	6.6774e-03
12.500	21.500	6.9424e-03
12.500	21.750	7.2007e-03
12.500	22.000	7.4896e-03
12.500	22.250	7.5298e-03
12.500	22.500	7.5583e-03
12.500	22.750	7.5818e-03
12.500	23.000	7.5975e-03
12.500	23.250	7.6063e-03
12.500	23.500	7.6111e-03
12.500	23.750	7.6147e-03
12.500	24.000	7.6174e-03
12.750	17.000	7.3613e-04
12.750	17.250	9.4560e-04
12.750	17.500	9.5753e-04
12.750	17.750	9.6189e-04
12.750	18.000	9.7152e-04
12.750	18.250	9.8889e-04
12.750	18.500	1.0171e-03
12.750	18.750	1.0601e-03
12.750	19.000	1.1230e-03
12.750	19.250	1.2125e-03
12.750	19.500	1.3381e-03
12.750	19.750	1.5149e-03
12.750	20.000	1.7664e-03
12.750	20.250	2.1233e-03
12.750	20.500	2.6410e-03
12.750	20.750	3.3956e-03
12.750	21.000	4.5291e-03
12.750	21.250	6.1592e-03
12.750	21.500	6.6991e-03
12.750	21.750	7.0000e-03
12.750	22.000	7.2783e-03
12.750	22.250	7.4877e-03
12.750	22.500	7.5244e-03
12.750	22.750	7.5543e-03
12.750	23.000	7.5786e-03
12.750	23.250	7.5951e-03
12.750	23.500	7.6051e-03
12.750	23.750	7.6104e-03
12.750	24.000	7.6143e-03
13.000	17.000	3.6782e-04
13.000	17.250	6.7942e-04
13.000	17.500	8.9490e-04
13.000	17.750	9.5786e-04
13.000	18.000	9.6379e-04
13.000	18.250	9.7523e-04
13.000	18.500	9.9465e-04
13.000	18.750	1.0249e-03
13.000	19.000	1.0696e-03
13.000	19.250	1.1336e-03
13.000	19.500	1.2236e-03
13.000	19.750	1.3501e-03
13.000	20.000	1.5284e-03
13.000	20.250	1.7830e-03
13.000	20.500	2.1477e-03
13.000	20.750	2.6816e-03
13.000	21.000	3.4696e-03
13.000	21.250	4.6670e-03
13.000	21.500	6.2900e-03
13.000	21.750	6.7444e-03
13.000	22.000	7.0486e-03
13.000	22.250	7.3365e-03
13.000	22.500	7.4844e-03
13.000	22.750	7.5207e-03
13.000	23.000	7.5513e-03
13.000	23.250	7.5754e-03
13.000	23.500	7.5931e-03
13.000	23.750	7.6034e-03
13.000	24.000	7.6093e-03
13.250	17.000	2.2387e-04
13.250	17.250	4.2601e-04
13.250	17.500	8.1984e-04
13.250	17.750	9.5473e-04
13.250	18.000	9.5844e-04
13.250	18.250	9.6568e-04
13.250	18.500	9.7868e-04
13.250	18.750	9.9967e-04
13.250	19.000	1.0312e-03
13.250	19.250	1.0766e-03
13.250	19.500	1.1411e-03
13.250	19.750	1.2317e-03
13.250	20.000	1.3589e-03
13.250	20.250	1.5395e-03
13.250	20.500	1.7999e-03
13.250	20.750	2.1737e-03
13.250	21.000	2.7319e-03
13.250	21.250	3.5622e-03
13.250	21.500	4.7564e-03
13.250	21.750	6.3444e-03
13.250	22.000	6.7672e-03
13.250	22.250	7.0821e-03
13.250	22.500	7.3534e-03
13.250	22.750	7.4814e-03
13.250	23.000	7.5173e-03
13.250	23.250	7.5472e-03
13.250	23.500	7.5728e-03
13.250	23.750	7.5909e-03
13.250	24.000	7.6014e-03
13.500	17.000	1.3457e-04
13.500	17.250	2.6469e-04
13.500	17.500	5.5070e-04
13.500	17.750	8.5012e-04
13.500	18.000	9.5399e-04
13.500	18.250	9.5868e-04
13.500	18.500	9.6716e-04
13.500	18.750	9.8140e-04
13.500	19.000	1.0034e-03
13.500	19.250	1.0355e-03
13.500	19.500	1.0816e-03
13.500	19.750	1.1462e-03
13.500	20.000	1.2367e-03
13.500	20.250	1.3649e-03
13.500	20.500	1.5487e-03
13.500	20.750	1.8130e-03
13.500	21.000	2.1956e-03
13.500	21.250	2.7765e-03
13.500	21.500	3.5988e-03
13.500	21.750	4.8598e-03
13.500	22.000	6.3656e-03
13.500	22.250	6.7647e-03
13.500	22.500	7.0713e-03
13.500	22.750	7.3415e-03
13.500	23.000	7.4769e-03
13.500	23.250	7.5124e-03
13.500	23.500	7.5444e-03
13.500	23.750	7.5703e-03
13.500	24.000	7.5882e-03
13.750	17.000	8.1646e-05
13.750	17.250	1.6082e-04
13.750	17.500	3.5687e-04
13.750	17.750	6.2733e-04
13.750	18.000	9.3556e-04
13.750	18.250	9.5309e-04
13.750	18.500	9.5852e-04
13.750	18.750	9.6798e-04
13.750	19.000	9.8313e-04
13.750	19.250	1.0058e-03
13.750	19.500	1.0383e-03
13.750	19.750	1.0841e-03
13.750	20.000	1.1485e-03
13.750	20.250	1.2393e-03
13.750	20.500	1.3687e-03
13.750	20.750	1.5554e-03
13.750	21.000	1.8254e-03
13.750	21.250	2.2207e-03
13.750	21.500	2.7904e-03
13.750	21.750	3.6778e-03
13.750	22.000	4.9850e-03
13.750	22.250	6.3826e-03
13.750	22.500	6.7421e-03
13.750	22.750	7.0556e-03
13.750	23.000	7.3320e-03
13.750	23.250	7.4695e-03
13.750	23.500	7.5067e-03
13.750	23.750	7.5407e-03
13.750	24.000	7.5667e-03
14.000	17.000	4.8724e-05
14.000	17.250	9.8189e-05
14.000	17.500	2.1868e-04
14.000	17.750	4.3235e-04
14.000	18.000	7.3276e-04
14.000	18.250	9.4840e-04
14.000	18.500	9.5202e-04
14.000	18.750	9.5811e-04
14.000	19.000	9.6823e-04
14.000	19.250	9.8387e-04
14.000	19.500	1.0066e-03
14.000	19.750	1.0390e-03
14.000	20.000	1.0844e-03
14.000	20.250	1.1481e-03
14.000	20.500	1.2392e-03
14.000	20.750	1.3699e-03
14.000	21.000	1.5579e-03
14.000	21.250	1.8366e-03
14.000	21.500	2.2279e-03
14.000	21.750	2.8384e-03
14.000	22.000	3.7795e-03
14.000	22.250	5.1591e-03
14.000	22.500	6.3856e-03
14.000	22.750	6.7142e-03
14.000	23.000	7.0298e-03
14.000	23.250	7.3320e-03
14.000	23.500	7.4577e-03
14.000	23.750	7.4970e-03
14.000	24.000	7.5342e-03
