nFnu 913.000A  relative to Inci 1215.00A scaled to 1215A.
Hden   Phi(H)  Eq_Width (A)
 7.000	17.000	1.7452e-02
 7.000	17.250	1.6016e-02
 7.000	17.500	1.4388e-02
 7.000	17.750	1.2346e-02
 7.000	18.000	1.0590e-02
 7.000	18.250	9.4872e-03
 7.000	18.500	8.7555e-03
 7.000	18.750	8.3698e-03
 7.000	19.000	8.1632e-03
 7.000	19.250	8.0458e-03
 7.000	19.500	7.9952e-03
 7.000	19.750	7.9737e-03
 7.000	20.000	7.9642e-03
 7.000	20.250	7.9598e-03
 7.000	20.500	7.9575e-03
 7.000	20.750	7.9563e-03
 7.000	21.000	7.9556e-03
 7.000	21.250	7.9553e-03
 7.000	21.500	7.9553e-03
 7.000	21.750	7.9550e-03
 7.000	22.000	7.9550e-03
 7.000	22.250	7.9549e-03
 7.000	22.500	7.9549e-03
 7.000	22.750	7.9551e-03
 7.000	23.000	7.9551e-03
 7.000	23.250	7.9549e-03
 7.000	23.500	7.9549e-03
 7.000	23.750	7.9549e-03
 7.000	24.000	7.9549e-03
 7.250	17.000	1.8368e-02
 7.250	17.250	1.7090e-02
 7.250	17.500	1.5842e-02
 7.250	17.750	1.4310e-02
 7.250	18.000	1.2302e-02
 7.250	18.250	1.0566e-02
 7.250	18.500	9.4752e-03
 7.250	18.750	8.7514e-03
 7.250	19.000	8.3682e-03
 7.250	19.250	8.1626e-03
 7.250	19.500	8.0457e-03
 7.250	19.750	7.9951e-03
 7.250	20.000	7.9737e-03
 7.250	20.250	7.9642e-03
 7.250	20.500	7.9597e-03
 7.250	20.750	7.9574e-03
 7.250	21.000	7.9563e-03
 7.250	21.250	7.9556e-03
 7.250	21.500	7.9553e-03
 7.250	21.750	7.9567e-03
 7.250	22.000	7.9550e-03
 7.250	22.250	7.9550e-03
 7.250	22.500	7.9549e-03
 7.250	22.750	7.9556e-03
 7.250	23.000	7.9556e-03
 7.250	23.250	7.9549e-03
 7.250	23.500	7.9549e-03
 7.250	23.750	7.9549e-03
 7.250	24.000	7.9549e-03
 7.500	17.000	2.2219e-02
 7.500	17.250	1.7954e-02
 7.500	17.500	1.6878e-02
 7.500	17.750	1.5746e-02
 7.500	18.000	1.4273e-02
 7.500	18.250	1.2279e-02
 7.500	18.500	1.0551e-02
 7.500	18.750	9.4677e-03
 7.500	19.000	8.7486e-03
 7.500	19.250	8.3672e-03
 7.500	19.500	8.1623e-03
 7.500	19.750	8.0456e-03
 7.500	20.000	7.9951e-03
 7.500	20.250	7.9737e-03
 7.500	20.500	7.9641e-03
 7.500	20.750	7.9597e-03
 7.500	21.000	7.9574e-03
 7.500	21.250	7.9563e-03
 7.500	21.500	7.9556e-03
 7.500	21.750	7.9553e-03
 7.500	22.000	7.9551e-03
 7.500	22.250	7.9550e-03
 7.500	22.500	7.9550e-03
 7.500	22.750	7.9549e-03
 7.500	23.000	7.9553e-03
 7.500	23.250	7.9556e-03
 7.500	23.500	7.9549e-03
 7.500	23.750	7.9558e-03
 7.500	24.000	7.9549e-03
 7.750	17.000	2.6042e-02
 7.750	17.250	2.0001e-02
 7.750	17.500	1.7715e-02
 7.750	17.750	1.6753e-02
 7.750	18.000	1.5696e-02
 7.750	18.250	1.4263e-02
 7.750	18.500	1.2268e-02
 7.750	18.750	1.0543e-02
 7.750	19.000	9.4632e-03
 7.750	19.250	8.7469e-03
 7.750	19.500	8.3666e-03
 7.750	19.750	8.1621e-03
 7.750	20.000	8.0456e-03
 7.750	20.250	7.9951e-03
 7.750	20.500	7.9737e-03
 7.750	20.750	7.9641e-03
 7.750	21.000	7.9597e-03
 7.750	21.250	7.9574e-03
 7.750	21.500	7.9562e-03
 7.750	21.750	7.9556e-03
 7.750	22.000	7.9552e-03
 7.750	22.250	7.9551e-03
 7.750	22.500	7.9550e-03
 7.750	22.750	7.9551e-03
 7.750	23.000	7.9551e-03
 7.750	23.250	7.9549e-03
 7.750	23.500	7.9556e-03
 7.750	23.750	7.9556e-03
 7.750	24.000	7.9549e-03
 8.000	17.000	1.9638e-02
 8.000	17.250	2.1425e-02
 8.000	17.500	1.8366e-02
 8.000	17.750	1.7576e-02
 8.000	18.000	1.6679e-02
 8.000	18.250	1.5675e-02
 8.000	18.500	1.4271e-02
 8.000	18.750	1.2266e-02
 8.000	19.000	1.0538e-02
 8.000	19.250	9.4605e-03
 8.000	19.500	8.7458e-03
 8.000	19.750	8.3662e-03
 8.000	20.000	8.1620e-03
 8.000	20.250	8.0455e-03
 8.000	20.500	7.9951e-03
 8.000	20.750	7.9736e-03
 8.000	21.000	7.9641e-03
 8.000	21.250	7.9597e-03
 8.000	21.500	7.9574e-03
 8.000	21.750	7.9562e-03
 8.000	22.000	7.9556e-03
 8.000	22.250	7.9552e-03
 8.000	22.500	7.9551e-03
 8.000	22.750	7.9551e-03
 8.000	23.000	7.9549e-03
 8.000	23.250	7.9554e-03
 8.000	23.500	7.9548e-03
 8.000	23.750	7.9548e-03
 8.000	24.000	7.9548e-03
 8.250	17.000	1.4529e-02
 8.250	17.250	1.6124e-02
 8.250	17.500	1.8339e-02
 8.250	17.750	1.7061e-02
 8.250	18.000	1.7485e-02
 8.250	18.250	1.6630e-02
 8.250	18.500	1.5670e-02
 8.250	18.750	1.4290e-02
 8.250	19.000	1.2269e-02
 8.250	19.250	1.0537e-02
 8.250	19.500	9.4589e-03
 8.250	19.750	8.7453e-03
 8.250	20.000	8.3659e-03
 8.250	20.250	8.1619e-03
 8.250	20.500	8.0455e-03
 8.250	20.750	7.9951e-03
 8.250	21.000	7.9737e-03
 8.250	21.250	7.9641e-03
 8.250	21.500	7.9597e-03
 8.250	21.750	7.9574e-03
 8.250	22.000	7.9562e-03
 8.250	22.250	7.9556e-03
 8.250	22.500	7.9552e-03
 8.250	22.750	7.9552e-03
 8.250	23.000	7.9549e-03
 8.250	23.250	7.9570e-03
 8.250	23.500	7.9548e-03
 8.250	23.750	7.9548e-03
 8.250	24.000	7.9554e-03
 8.500	17.000	1.0973e-02
 8.500	17.250	1.1906e-02
 8.500	17.500	1.3810e-02
 8.500	17.750	1.6332e-02
 8.500	18.000	1.6283e-02
 8.500	18.250	1.7416e-02
 8.500	18.500	1.6594e-02
 8.500	18.750	1.5676e-02
 8.500	19.000	1.4319e-02
 8.500	19.250	1.2276e-02
 8.500	19.500	1.0536e-02
 8.500	19.750	9.4580e-03
 8.500	20.000	8.7448e-03
 8.500	20.250	8.3658e-03
 8.500	20.500	8.1618e-03
 8.500	20.750	8.0455e-03
 8.500	21.000	7.9951e-03
 8.500	21.250	7.9737e-03
 8.500	21.500	7.9641e-03
 8.500	21.750	7.9597e-03
 8.500	22.000	7.9574e-03
 8.500	22.250	7.9562e-03
 8.500	22.500	7.9556e-03
 8.500	22.750	7.9552e-03
 8.500	23.000	7.9551e-03
 8.500	23.250	7.9551e-03
 8.500	23.500	7.9548e-03
 8.500	23.750	7.9548e-03
 8.500	24.000	7.9548e-03
 8.750	17.000	8.6542e-03
 8.750	17.250	9.1153e-03
 8.750	17.500	1.0290e-02
 8.750	17.750	1.2400e-02
 8.750	18.000	1.5096e-02
 8.750	18.250	1.5829e-02
 8.750	18.500	1.7356e-02
 8.750	18.750	1.6562e-02
 8.750	19.000	1.5688e-02
 8.750	19.250	1.4352e-02
 8.750	19.500	1.2286e-02
 8.750	19.750	1.0537e-02
 8.750	20.000	9.4574e-03
 8.750	20.250	8.7445e-03
 8.750	20.500	8.3658e-03
 8.750	20.750	8.1618e-03
 8.750	21.000	8.0455e-03
 8.750	21.250	7.9951e-03
 8.750	21.500	7.9737e-03
 8.750	21.750	7.9641e-03
 8.750	22.000	7.9597e-03
 8.750	22.250	7.9574e-03
 8.750	22.500	7.9562e-03
 8.750	22.750	7.9556e-03
 8.750	23.000	7.9560e-03
 8.750	23.250	7.9551e-03
 8.750	23.500	7.9551e-03
 8.750	23.750	7.9548e-03
 8.750	24.000	7.9548e-03
 9.000	17.000	7.1536e-03
 9.000	17.250	7.3543e-03
 9.000	17.500	8.0135e-03
 9.000	17.750	9.3440e-03
 9.000	18.000	1.1586e-02
 9.000	18.250	1.4400e-02
 9.000	18.500	1.5535e-02
 9.000	18.750	1.7298e-02
 9.000	19.000	1.6528e-02
 9.000	19.250	1.5698e-02
 9.000	19.500	1.4387e-02
 9.000	19.750	1.2296e-02
 9.000	20.000	1.0538e-02
 9.000	20.250	9.4571e-03
 9.000	20.500	8.7444e-03
 9.000	20.750	8.3657e-03
 9.000	21.000	8.1618e-03
 9.000	21.250	8.0455e-03
 9.000	21.500	7.9951e-03
 9.000	21.750	7.9736e-03
 9.000	22.000	7.9641e-03
 9.000	22.250	7.9597e-03
 9.000	22.500	7.9574e-03
 9.000	22.750	7.9562e-03
 9.000	23.000	7.9556e-03
 9.000	23.250	7.9552e-03
 9.000	23.500	7.9551e-03
 9.000	23.750	7.9549e-03
 9.000	24.000	7.9549e-03
 9.250	17.000	6.1588e-03
 9.250	17.250	6.2267e-03
 9.250	17.500	6.6111e-03
 9.250	17.750	7.4216e-03
 9.250	18.000	8.9003e-03
 9.250	18.250	1.1276e-02
 9.250	18.500	1.4038e-02
 9.250	18.750	1.5343e-02
 9.250	19.000	1.7237e-02
 9.250	19.250	1.6488e-02
 9.250	19.500	1.5700e-02
 9.250	19.750	1.4419e-02
 9.250	20.000	1.2306e-02
 9.250	20.250	1.0539e-02
 9.250	20.500	9.4570e-03
 9.250	20.750	8.7442e-03
 9.250	21.000	8.3657e-03
 9.250	21.250	8.1618e-03
 9.250	21.500	8.0450e-03
 9.250	21.750	7.9946e-03
 9.250	22.000	7.9729e-03
 9.250	22.250	7.9636e-03
 9.250	22.500	7.9593e-03
 9.250	22.750	7.9570e-03
 9.250	23.000	7.9560e-03
 9.250	23.250	7.9554e-03
 9.250	23.500	7.9551e-03
 9.250	23.750	7.9548e-03
 9.250	24.000	7.9548e-03
 9.500	17.000	5.4633e-03
 9.500	17.250	5.4659e-03
 9.500	17.500	5.7243e-03
 9.500	17.750	6.2694e-03
 9.500	18.000	7.2220e-03
 9.500	18.250	8.8584e-03
 9.500	18.500	1.1399e-02
 9.500	18.750	1.3834e-02
 9.500	19.000	1.5215e-02
 9.500	19.250	1.7177e-02
 9.500	19.500	1.6442e-02
 9.500	19.750	1.5691e-02
 9.500	20.000	1.4444e-02
 9.500	20.250	1.2315e-02
 9.500	20.500	1.0540e-02
 9.500	20.750	9.4564e-03
 9.500	21.000	8.7435e-03
 9.500	21.250	8.3651e-03
 9.500	21.500	8.1612e-03
 9.500	21.750	8.0447e-03
 9.500	22.000	7.9943e-03
 9.500	22.250	7.9728e-03
 9.500	22.500	7.9634e-03
 9.500	22.750	7.9588e-03
 9.500	23.000	7.9566e-03
 9.500	23.250	7.9554e-03
 9.500	23.500	7.9548e-03
 9.500	23.750	7.9545e-03
 9.500	24.000	7.9542e-03
 9.750	17.000	5.0030e-03
 9.750	17.250	4.9163e-03
 9.750	17.500	5.0998e-03
 9.750	17.750	5.5200e-03
 9.750	18.000	6.2303e-03
 9.750	18.250	7.3938e-03
 9.750	18.500	9.2453e-03
 9.750	18.750	1.1839e-02
 9.750	19.000	1.3666e-02
 9.750	19.250	1.5125e-02
 9.750	19.500	1.7119e-02
 9.750	19.750	1.6391e-02
 9.750	20.000	1.5670e-02
 9.750	20.250	1.4457e-02
 9.750	20.500	1.2321e-02
 9.750	20.750	1.0541e-02
 9.750	21.000	9.4564e-03
 9.750	21.250	8.7435e-03
 9.750	21.500	8.3651e-03
 9.750	21.750	8.1612e-03
 9.750	22.000	8.0448e-03
 9.750	22.250	7.9944e-03
 9.750	22.500	7.9728e-03
 9.750	22.750	7.9634e-03
 9.750	23.000	7.9588e-03
 9.750	23.250	7.9566e-03
 9.750	23.500	7.9554e-03
 9.750	23.750	7.9547e-03
 9.750	24.000	7.9544e-03
10.000	17.000	4.7327e-03
10.000	17.250	4.5278e-03
10.000	17.500	4.6108e-03
10.000	17.750	4.9702e-03
10.000	18.000	5.6050e-03
10.000	18.250	6.5277e-03
10.000	18.500	7.8825e-03
10.000	18.750	9.8767e-03
10.000	19.000	1.2151e-02
10.000	19.250	1.3552e-02
10.000	19.500	1.5059e-02
10.000	19.750	1.7070e-02
10.000	20.000	1.6341e-02
10.000	20.250	1.5640e-02
10.000	20.500	1.4465e-02
10.000	20.750	1.2327e-02
10.000	21.000	1.0541e-02
10.000	21.250	9.4565e-03
10.000	21.500	8.7433e-03
10.000	21.750	8.3652e-03
10.000	22.000	8.1613e-03
10.000	22.250	8.0449e-03
10.000	22.500	7.9943e-03
10.000	22.750	7.9728e-03
10.000	23.000	7.9634e-03
10.000	23.250	7.9589e-03
10.000	23.500	7.9566e-03
10.000	23.750	7.9555e-03
10.000	24.000	7.9548e-03
10.250	17.000	4.6477e-03
10.250	17.250	4.3137e-03
10.250	17.500	4.2700e-03
10.250	17.750	4.5428e-03
10.250	18.000	5.1310e-03
10.250	18.250	5.9489e-03
10.250	18.500	7.0352e-03
10.250	18.750	8.5403e-03
10.250	19.000	1.0550e-02
10.250	19.250	1.2338e-02
10.250	19.500	1.3525e-02
10.250	19.750	1.5023e-02
10.250	20.000	1.7069e-02
10.250	20.250	1.6311e-02
10.250	20.500	1.5606e-02
10.250	20.750	1.4464e-02
10.250	21.000	1.2330e-02
10.250	21.250	1.0541e-02
10.250	21.500	9.4566e-03
10.250	21.750	8.7433e-03
10.250	22.000	8.3652e-03
10.250	22.250	8.1613e-03
10.250	22.500	8.0449e-03
10.250	22.750	7.9943e-03
10.250	23.000	7.9728e-03
10.250	23.250	7.9634e-03
10.250	23.500	7.9588e-03
10.250	23.750	7.9566e-03
10.250	24.000	7.9555e-03
10.500	17.000	4.6875e-03
10.500	17.250	4.2721e-03
10.500	17.500	4.0996e-03
10.500	17.750	4.2580e-03
10.500	18.000	4.7516e-03
10.500	18.250	5.4964e-03
10.500	18.500	6.4146e-03
10.500	18.750	7.5565e-03
10.500	19.000	9.0742e-03
10.500	19.250	1.1005e-02
10.500	19.500	1.2516e-02
10.500	19.750	1.3643e-02
10.500	20.000	1.5111e-02
10.500	20.250	1.7122e-02
10.500	20.500	1.6315e-02
10.500	20.750	1.5576e-02
10.500	21.000	1.4454e-02
10.500	21.250	1.2330e-02
10.500	21.500	1.0541e-02
10.500	21.750	9.4566e-03
10.500	22.000	8.7434e-03
10.500	22.250	8.3653e-03
10.500	22.500	8.1614e-03
10.500	22.750	8.0450e-03
10.500	23.000	7.9945e-03
10.500	23.250	7.9728e-03
10.500	23.500	7.9634e-03
10.500	23.750	7.9589e-03
10.500	24.000	7.9566e-03
10.750	17.000	4.7946e-03
10.750	17.250	4.3543e-03
10.750	17.500	4.1060e-03
10.750	17.750	4.1463e-03
10.750	18.000	4.4881e-03
10.750	18.250	5.0675e-03
10.750	18.500	5.8130e-03
10.750	18.750	6.7001e-03
10.750	19.000	7.8760e-03
10.750	19.250	9.4956e-03
10.750	19.500	1.1284e-02
10.750	19.750	1.2690e-02
10.750	20.000	1.3925e-02
10.750	20.250	1.5395e-02
10.750	20.500	1.7349e-02
10.750	20.750	1.6373e-02
10.750	21.000	1.5561e-02
10.750	21.250	1.4438e-02
10.750	21.500	1.2328e-02
10.750	21.750	1.0540e-02
10.750	22.000	9.4565e-03
10.750	22.250	8.7434e-03
10.750	22.500	8.3654e-03
10.750	22.750	8.1615e-03
10.750	23.000	8.0450e-03
10.750	23.250	7.9946e-03
10.750	23.500	7.9729e-03
10.750	23.750	7.9634e-03
10.750	24.000	7.9589e-03
11.000	17.000	4.9318e-03
11.000	17.250	4.5046e-03
11.000	17.500	4.2330e-03
11.000	17.750	4.1911e-03
11.000	18.000	4.3703e-03
11.000	18.250	4.7165e-03
11.000	18.500	5.2438e-03
11.000	18.750	5.9488e-03
11.000	19.000	6.8749e-03
11.000	19.250	8.1510e-03
11.000	19.500	9.9070e-03
11.000	19.750	1.1701e-02
11.000	20.000	1.3118e-02
11.000	20.250	1.4558e-02
11.000	20.500	1.5941e-02
11.000	20.750	1.7802e-02
11.000	21.000	1.6591e-02
11.000	21.250	1.5576e-02
11.000	21.500	1.4416e-02
11.000	21.750	1.2324e-02
11.000	22.000	1.0538e-02
11.000	22.250	9.4565e-03
11.000	22.500	8.7432e-03
11.000	22.750	8.3656e-03
11.000	23.000	8.1616e-03
11.000	23.250	8.0451e-03
11.000	23.500	7.9947e-03
11.000	23.750	7.9730e-03
11.000	24.000	7.9635e-03
11.250	17.000	5.0584e-03
11.250	17.250	4.6758e-03
11.250	17.500	4.4079e-03
11.250	17.750	4.3228e-03
11.250	18.000	4.3775e-03
11.250	18.250	4.5048e-03
11.250	18.500	4.7860e-03
11.250	18.750	5.3140e-03
11.250	19.000	6.0399e-03
11.250	19.250	7.0256e-03
11.250	19.500	8.4326e-03
11.250	19.750	1.0350e-02
11.250	20.000	1.2089e-02
11.250	20.250	1.3699e-02
11.250	20.500	1.5250e-02
11.250	20.750	1.6849e-02
11.250	21.000	1.8699e-02
11.250	21.250	1.6978e-02
11.250	21.500	1.5664e-02
11.250	21.750	1.4392e-02
11.250	22.000	1.2317e-02
11.250	22.250	1.0536e-02
11.250	22.500	9.4565e-03
11.250	22.750	8.7430e-03
11.250	23.000	8.3656e-03
11.250	23.250	8.1619e-03
11.250	23.500	8.0451e-03
11.250	23.750	7.9947e-03
11.250	24.000	7.9731e-03
11.500	17.000	5.1278e-03
11.500	17.250	4.8204e-03
11.500	17.500	4.5774e-03
11.500	17.750	4.4691e-03
11.500	18.000	4.4448e-03
11.500	18.250	4.4446e-03
11.500	18.500	4.5321e-03
11.500	18.750	4.8259e-03
11.500	19.000	5.3560e-03
11.500	19.250	6.1142e-03
11.500	19.500	7.1983e-03
11.500	19.750	8.7691e-03
11.500	20.000	1.0883e-02
11.500	20.250	1.2691e-02
11.500	20.500	1.4570e-02
11.500	20.750	1.6400e-02
11.500	21.000	1.8240e-02
11.500	21.250	1.9891e-02
11.500	21.500	1.7589e-02
11.500	21.750	1.5837e-02
11.500	22.000	1.4374e-02
11.500	22.250	1.2308e-02
11.500	22.500	1.0533e-02
11.500	22.750	9.4565e-03
11.500	23.000	8.7429e-03
11.500	23.250	8.3656e-03
11.500	23.500	8.1620e-03
11.500	23.750	8.0452e-03
11.500	24.000	7.9947e-03
11.750	17.000	5.0550e-03
11.750	17.250	4.8736e-03
11.750	17.500	4.6892e-03
11.750	17.750	4.5830e-03
11.750	18.000	4.5216e-03
11.750	18.250	4.4782e-03
11.750	18.500	4.4565e-03
11.750	18.750	4.5342e-03
11.750	19.000	4.8345e-03
11.750	19.250	5.3843e-03
11.750	19.500	6.1986e-03
11.750	19.750	7.3937e-03
11.750	20.000	9.1695e-03
11.750	20.250	1.1529e-02
11.750	20.500	1.3514e-02
11.750	20.750	1.5703e-02
11.750	21.000	1.7984e-02
11.750	21.250	2.0317e-02
11.750	21.500	2.1227e-02
11.750	21.750	1.8381e-02
11.750	22.000	1.6155e-02
11.750	22.250	1.4373e-02
11.750	22.500	1.2297e-02
11.750	22.750	1.0530e-02
11.750	23.000	9.4565e-03
11.750	23.250	8.7426e-03
11.750	23.500	8.3656e-03
11.750	23.750	8.1621e-03
11.750	24.000	8.0454e-03
12.000	17.000	4.7473e-03
12.000	17.250	4.7513e-03
12.000	17.500	4.6811e-03
12.000	17.750	4.6259e-03
12.000	18.000	4.5822e-03
12.000	18.250	4.5334e-03
12.000	18.500	4.4725e-03
12.000	18.750	4.4387e-03
12.000	19.000	4.5226e-03
12.000	19.250	4.8259e-03
12.000	19.500	5.4101e-03
12.000	19.750	6.2942e-03
12.000	20.000	7.6420e-03
12.000	20.250	9.6696e-03
12.000	20.500	1.2339e-02
12.000	20.750	1.4586e-02
12.000	21.000	1.7313e-02
12.000	21.250	2.0492e-02
12.000	21.500	2.3303e-02
12.000	21.750	2.2613e-02
12.000	22.000	1.9343e-02
12.000	22.250	1.6597e-02
12.000	22.500	1.4401e-02
12.000	22.750	1.2285e-02
12.000	23.000	1.0527e-02
12.000	23.250	9.4565e-03
12.000	23.500	8.7424e-03
12.000	23.750	8.3655e-03
12.000	24.000	8.1621e-03
12.250	17.000	4.1537e-03
12.250	17.250	4.3831e-03
12.250	17.500	4.4904e-03
12.250	17.750	4.5496e-03
12.250	18.000	4.5670e-03
12.250	18.250	4.5455e-03
12.250	18.500	4.4886e-03
12.250	18.750	4.4261e-03
12.250	19.000	4.3947e-03
12.250	19.250	4.4840e-03
12.250	19.500	4.8174e-03
12.250	19.750	5.4453e-03
12.250	20.000	6.4262e-03
12.250	20.250	7.9672e-03
12.250	20.500	1.0317e-02
12.250	20.750	1.3394e-02
12.250	21.000	1.6213e-02
12.250	21.250	1.9821e-02
12.250	21.500	2.3928e-02
12.250	21.750	2.6927e-02
12.250	22.000	2.4148e-02
12.250	22.250	2.0004e-02
12.250	22.500	1.6831e-02
12.250	22.750	1.4463e-02
12.250	23.000	1.2274e-02
12.250	23.250	1.0524e-02
12.250	23.500	9.4565e-03
12.250	23.750	8.7419e-03
12.250	24.000	8.3653e-03
12.500	17.000	3.3241e-03
12.500	17.250	3.8040e-03
12.500	17.500	4.1016e-03
12.500	17.750	4.2910e-03
12.500	18.000	4.4051e-03
12.500	18.250	4.4509e-03
12.500	18.500	4.4480e-03
12.500	18.750	4.4080e-03
12.500	19.000	4.3519e-03
12.500	19.250	4.3354e-03
12.500	19.500	4.4416e-03
12.500	19.750	4.8152e-03
12.500	20.000	5.4999e-03
12.500	20.250	6.6063e-03
12.500	20.500	8.3975e-03
12.500	20.750	1.1219e-02
12.500	21.000	1.5011e-02
12.500	21.250	1.8766e-02
12.500	21.500	2.3353e-02
12.500	21.750	2.8230e-02
12.500	22.000	3.0028e-02
12.500	22.250	2.5480e-02
12.500	22.500	2.0973e-02
12.500	22.750	1.7427e-02
12.500	23.000	1.4556e-02
12.500	23.250	1.2265e-02
12.500	23.500	1.0520e-02
12.500	23.750	9.4565e-03
12.500	24.000	8.7413e-03
12.750	17.000	2.5170e-03
12.750	17.250	3.0274e-03
12.750	17.500	3.5026e-03
12.750	17.750	3.8193e-03
12.750	18.000	4.0481e-03
12.750	18.250	4.2097e-03
12.750	18.500	4.3021e-03
12.750	18.750	4.3347e-03
12.750	19.000	4.3196e-03
12.750	19.250	4.2821e-03
12.750	19.500	4.2756e-03
12.750	19.750	4.4018e-03
12.750	20.000	4.8106e-03
12.750	20.250	5.5853e-03
12.750	20.500	6.8590e-03
12.750	20.750	9.0285e-03
12.750	21.000	1.2609e-02
12.750	21.250	1.7457e-02
12.750	21.500	2.2132e-02
12.750	21.750	2.8198e-02
12.750	22.000	3.3244e-02
12.750	22.250	3.3040e-02
12.750	22.500	2.7266e-02
12.750	22.750	2.2164e-02
12.750	23.000	1.7958e-02
12.750	23.250	1.4669e-02
12.750	23.500	1.2260e-02
12.750	23.750	1.0516e-02
12.750	24.000	9.4563e-03
13.000	17.000	2.1223e-03
13.000	17.250	2.2976e-03
13.000	17.500	2.6897e-03
13.000	17.750	3.1267e-03
13.000	18.000	3.4853e-03
13.000	18.250	3.7844e-03
13.000	18.500	4.0117e-03
13.000	18.750	4.1537e-03
13.000	19.000	4.2211e-03
13.000	19.250	4.2320e-03
13.000	19.500	4.2082e-03
13.000	19.750	4.2153e-03
13.000	20.000	4.3621e-03
13.000	20.250	4.8051e-03
13.000	20.500	5.7035e-03
13.000	20.750	7.2129e-03
13.000	21.000	9.8264e-03
13.000	21.250	1.4368e-02
13.000	21.500	2.0379e-02
13.000	21.750	2.6810e-02
13.000	22.000	3.3176e-02
13.000	22.250	3.8251e-02
13.000	22.500	3.6012e-02
13.000	22.750	2.8955e-02
13.000	23.000	2.3130e-02
13.000	23.250	1.8447e-02
13.000	23.500	1.4805e-02
13.000	23.750	1.2261e-02
13.000	24.000	1.0514e-02
13.250	17.000	1.8408e-03
13.250	17.250	1.8951e-03
13.250	17.500	1.7056e-03
13.250	17.750	2.1245e-03
13.250	18.000	2.6802e-03
13.250	18.250	3.1309e-03
13.250	18.500	3.5165e-03
13.250	18.750	3.8141e-03
13.250	19.000	4.0070e-03
13.250	19.250	4.1086e-03
13.250	19.500	4.1398e-03
13.250	19.750	4.1446e-03
13.250	20.000	4.1658e-03
13.250	20.250	4.3192e-03
13.250	20.500	4.7944e-03
13.250	20.750	5.7810e-03
13.250	21.000	7.6032e-03
13.250	21.250	1.0751e-02
13.250	21.500	1.5831e-02
13.250	21.750	2.2795e-02
13.250	22.000	3.0560e-02
13.250	22.250	3.8308e-02
13.250	22.500	4.3106e-02
13.250	22.750	3.9199e-02
13.250	23.000	3.0771e-02
13.250	23.250	2.3609e-02
13.250	23.500	1.8635e-02
13.250	23.750	1.4950e-02
13.250	24.000	1.2271e-02
13.500	17.000	1.6755e-03
13.500	17.250	1.6630e-03
13.500	17.500	1.3907e-03
13.500	17.750	1.5177e-03
13.500	18.000	1.6978e-03
13.500	18.250	2.0607e-03
13.500	18.500	2.6944e-03
13.500	18.750	3.2164e-03
13.500	19.000	3.6007e-03
13.500	19.250	3.8506e-03
13.500	19.500	3.9863e-03
13.500	19.750	4.0459e-03
13.500	20.000	4.0680e-03
13.500	20.250	4.1185e-03
13.500	20.500	4.2943e-03
13.500	20.750	4.7777e-03
13.500	21.000	5.7590e-03
13.500	21.250	7.7888e-03
13.500	21.500	1.0940e-02
13.500	21.750	1.6488e-02
13.500	22.000	2.4544e-02
13.500	22.250	3.3755e-02
13.500	22.500	4.3140e-02
13.500	22.750	4.8206e-02
13.500	23.000	4.2594e-02
13.500	23.250	3.2859e-02
13.500	23.500	2.5037e-02
13.500	23.750	1.9323e-02
13.500	24.000	1.5087e-02
13.750	17.000	1.5782e-03
13.750	17.250	1.5607e-03
13.750	17.500	1.2344e-03
13.750	17.750	1.3072e-03
13.750	18.000	1.4451e-03
13.750	18.250	1.6208e-03
13.750	18.500	1.8202e-03
13.750	18.750	2.0959e-03
13.750	19.000	2.8404e-03
13.750	19.250	3.3617e-03
13.750	19.500	3.6821e-03
13.750	19.750	3.8607e-03
13.750	20.000	3.9545e-03
13.750	20.250	4.0151e-03
13.750	20.500	4.1036e-03
13.750	20.750	4.3168e-03
13.750	21.000	4.8167e-03
13.750	21.250	5.8225e-03
13.750	21.500	7.7928e-03
13.750	21.750	1.1332e-02
13.750	22.000	1.7381e-02
13.750	22.250	2.6960e-02
13.750	22.500	3.7795e-02
13.750	22.750	4.8849e-02
13.750	23.000	5.3833e-02
13.750	23.250	4.6079e-02
13.750	23.500	3.4606e-02
13.750	23.750	2.5986e-02
13.750	24.000	1.9753e-02
14.000	17.000	1.5193e-03
14.000	17.250	1.5205e-03
14.000	17.500	1.2230e-03
14.000	17.750	1.1770e-03
14.000	18.000	1.2877e-03
14.000	18.250	1.4313e-03
14.000	18.500	1.5940e-03
14.000	18.750	1.7665e-03
14.000	19.000	1.9482e-03
14.000	19.250	2.3677e-03
14.000	19.500	3.0999e-03
14.000	19.750	3.5117e-03
14.000	20.000	3.7461e-03
14.000	20.250	3.8867e-03
14.000	20.500	3.9978e-03
14.000	20.750	4.1478e-03
14.000	21.000	4.4335e-03
14.000	21.250	5.0244e-03
14.000	21.500	6.1213e-03
14.000	21.750	8.2757e-03
14.000	22.000	1.2199e-02
14.000	22.250	1.9591e-02
14.000	22.500	3.0771e-02
14.000	22.750	4.2644e-02
14.000	23.000	5.5228e-02
14.000	23.250	5.9947e-02
14.000	23.500	4.9646e-02
14.000	23.750	3.6304e-02
14.000	24.000	2.6977e-02
