InwC 1793.44A  relative to Inci 1215.00A scaled to 1215A.
Hden   Phi(H)  Eq_Width (A)
 7.000	17.000	7.6907e-03
 7.000	17.250	7.6941e-03
 7.000	17.500	7.6973e-03
 7.000	17.750	7.7006e-03
 7.000	18.000	7.7039e-03
 7.000	18.250	7.7067e-03
 7.000	18.500	7.7086e-03
 7.000	18.750	7.7095e-03
 7.000	19.000	7.7105e-03
 7.000	19.250	7.7111e-03
 7.000	19.500	7.7114e-03
 7.000	19.750	7.7114e-03
 7.000	20.000	7.7115e-03
 7.000	20.250	7.7116e-03
 7.000	20.500	7.7116e-03
 7.000	20.750	7.7116e-03
 7.000	21.000	7.7116e-03
 7.000	21.250	7.7116e-03
 7.000	21.500	7.7118e-03
 7.000	21.750	7.7116e-03
 7.000	22.000	7.7116e-03
 7.000	22.250	7.7116e-03
 7.000	22.500	7.7116e-03
 7.000	22.750	7.7119e-03
 7.000	23.000	7.7119e-03
 7.000	23.250	7.7116e-03
 7.000	23.500	7.7116e-03
 7.000	23.750	7.7116e-03
 7.000	24.000	7.7116e-03
 7.250	17.000	7.6776e-03
 7.250	17.250	7.6907e-03
 7.250	17.500	7.6941e-03
 7.250	17.750	7.6973e-03
 7.250	18.000	7.7006e-03
 7.250	18.250	7.7039e-03
 7.250	18.500	7.7067e-03
 7.250	18.750	7.7086e-03
 7.250	19.000	7.7095e-03
 7.250	19.250	7.7105e-03
 7.250	19.500	7.7111e-03
 7.250	19.750	7.7114e-03
 7.250	20.000	7.7114e-03
 7.250	20.250	7.7115e-03
 7.250	20.500	7.7115e-03
 7.250	20.750	7.7116e-03
 7.250	21.000	7.7116e-03
 7.250	21.250	7.7116e-03
 7.250	21.500	7.7116e-03
 7.250	21.750	7.7132e-03
 7.250	22.000	7.7116e-03
 7.250	22.250	7.7116e-03
 7.250	22.500	7.7116e-03
 7.250	22.750	7.7124e-03
 7.250	23.000	7.7124e-03
 7.250	23.250	7.7116e-03
 7.250	23.500	7.7116e-03
 7.250	23.750	7.7116e-03
 7.250	24.000	7.7116e-03
 7.500	17.000	7.3451e-03
 7.500	17.250	7.6783e-03
 7.500	17.500	7.6907e-03
 7.500	17.750	7.6941e-03
 7.500	18.000	7.6974e-03
 7.500	18.250	7.7007e-03
 7.500	18.500	7.7039e-03
 7.500	18.750	7.7067e-03
 7.500	19.000	7.7086e-03
 7.500	19.250	7.7095e-03
 7.500	19.500	7.7105e-03
 7.500	19.750	7.7111e-03
 7.500	20.000	7.7114e-03
 7.500	20.250	7.7114e-03
 7.500	20.500	7.7115e-03
 7.500	20.750	7.7115e-03
 7.500	21.000	7.7115e-03
 7.500	21.250	7.7116e-03
 7.500	21.500	7.7116e-03
 7.500	21.750	7.7116e-03
 7.500	22.000	7.7116e-03
 7.500	22.250	7.7116e-03
 7.500	22.500	7.7116e-03
 7.500	22.750	7.7116e-03
 7.500	23.000	7.7120e-03
 7.500	23.250	7.7124e-03
 7.500	23.500	7.7116e-03
 7.500	23.750	7.7126e-03
 7.500	24.000	7.7116e-03
 7.750	17.000	6.8249e-03
 7.750	17.250	7.3468e-03
 7.750	17.500	7.6787e-03
 7.750	17.750	7.6907e-03
 7.750	18.000	7.6941e-03
 7.750	18.250	7.6974e-03
 7.750	18.500	7.7007e-03
 7.750	18.750	7.7039e-03
 7.750	19.000	7.7067e-03
 7.750	19.250	7.7086e-03
 7.750	19.500	7.7095e-03
 7.750	19.750	7.7105e-03
 7.750	20.000	7.7111e-03
 7.750	20.250	7.7114e-03
 7.750	20.500	7.7114e-03
 7.750	20.750	7.7115e-03
 7.750	21.000	7.7115e-03
 7.750	21.250	7.7115e-03
 7.750	21.500	7.7115e-03
 7.750	21.750	7.7116e-03
 7.750	22.000	7.7116e-03
 7.750	22.250	7.7116e-03
 7.750	22.500	7.7116e-03
 7.750	22.750	7.7119e-03
 7.750	23.000	7.7119e-03
 7.750	23.250	7.7117e-03
 7.750	23.500	7.7124e-03
 7.750	23.750	7.7124e-03
 7.750	24.000	7.7116e-03
 8.000	17.000	5.2189e-03
 8.000	17.250	6.7911e-03
 8.000	17.500	7.3438e-03
 8.000	17.750	7.6774e-03
 8.000	18.000	7.6907e-03
 8.000	18.250	7.6941e-03
 8.000	18.500	7.6974e-03
 8.000	18.750	7.7007e-03
 8.000	19.000	7.7039e-03
 8.000	19.250	7.7067e-03
 8.000	19.500	7.7086e-03
 8.000	19.750	7.7095e-03
 8.000	20.000	7.7105e-03
 8.000	20.250	7.7111e-03
 8.000	20.500	7.7114e-03
 8.000	20.750	7.7114e-03
 8.000	21.000	7.7115e-03
 8.000	21.250	7.7115e-03
 8.000	21.500	7.7115e-03
 8.000	21.750	7.7115e-03
 8.000	22.000	7.7115e-03
 8.000	22.250	7.7115e-03
 8.000	22.500	7.7116e-03
 8.000	22.750	7.7118e-03
 8.000	23.000	7.7116e-03
 8.000	23.250	7.7121e-03
 8.000	23.500	7.7116e-03
 8.000	23.750	7.7116e-03
 8.000	24.000	7.7116e-03
 8.250	17.000	4.0821e-03
 8.250	17.250	5.2319e-03
 8.250	17.500	6.7963e-03
 8.250	17.750	7.3449e-03
 8.250	18.000	7.6778e-03
 8.250	18.250	7.6907e-03
 8.250	18.500	7.6941e-03
 8.250	18.750	7.6974e-03
 8.250	19.000	7.7007e-03
 8.250	19.250	7.7040e-03
 8.250	19.500	7.7067e-03
 8.250	19.750	7.7086e-03
 8.250	20.000	7.7095e-03
 8.250	20.250	7.7105e-03
 8.250	20.500	7.7111e-03
 8.250	20.750	7.7114e-03
 8.250	21.000	7.7114e-03
 8.250	21.250	7.7115e-03
 8.250	21.500	7.7115e-03
 8.250	21.750	7.7115e-03
 8.250	22.000	7.7115e-03
 8.250	22.250	7.7115e-03
 8.250	22.500	7.7115e-03
 8.250	22.750	7.7118e-03
 8.250	23.000	7.7115e-03
 8.250	23.250	7.7136e-03
 8.250	23.500	7.7115e-03
 8.250	23.750	7.7116e-03
 8.250	24.000	7.7121e-03
 8.500	17.000	3.2878e-03
 8.500	17.250	4.0974e-03
 8.500	17.500	5.2447e-03
 8.500	17.750	6.8024e-03
 8.500	18.000	7.3458e-03
 8.500	18.250	7.6779e-03
 8.500	18.500	7.6906e-03
 8.500	18.750	7.6941e-03
 8.500	19.000	7.6974e-03
 8.500	19.250	7.7007e-03
 8.500	19.500	7.7040e-03
 8.500	19.750	7.7067e-03
 8.500	20.000	7.7086e-03
 8.500	20.250	7.7095e-03
 8.500	20.500	7.7105e-03
 8.500	20.750	7.7111e-03
 8.500	21.000	7.7114e-03
 8.500	21.250	7.7114e-03
 8.500	21.500	7.7115e-03
 8.500	21.750	7.7115e-03
 8.500	22.000	7.7115e-03
 8.500	22.250	7.7115e-03
 8.500	22.500	7.7115e-03
 8.500	22.750	7.7115e-03
 8.500	23.000	7.7115e-03
 8.500	23.250	7.7118e-03
 8.500	23.500	7.7115e-03
 8.500	23.750	7.7115e-03
 8.500	24.000	7.7115e-03
 8.750	17.000	2.7364e-03
 8.750	17.250	3.3046e-03
 8.750	17.500	4.1189e-03
 8.750	17.750	5.2510e-03
 8.750	18.000	6.8136e-03
 8.750	18.250	7.3459e-03
 8.750	18.500	7.6779e-03
 8.750	18.750	7.6905e-03
 8.750	19.000	7.6941e-03
 8.750	19.250	7.6974e-03
 8.750	19.500	7.7007e-03
 8.750	19.750	7.7040e-03
 8.750	20.000	7.7067e-03
 8.750	20.250	7.7086e-03
 8.750	20.500	7.7095e-03
 8.750	20.750	7.7105e-03
 8.750	21.000	7.7111e-03
 8.750	21.250	7.7114e-03
 8.750	21.500	7.7114e-03
 8.750	21.750	7.7115e-03
 8.750	22.000	7.7115e-03
 8.750	22.250	7.7115e-03
 8.750	22.500	7.7115e-03
 8.750	22.750	7.7115e-03
 8.750	23.000	7.7123e-03
 8.750	23.250	7.7115e-03
 8.750	23.500	7.7118e-03
 8.750	23.750	7.7115e-03
 8.750	24.000	7.7115e-03
 9.000	17.000	2.3509e-03
 9.000	17.250	2.7487e-03
 9.000	17.500	3.3277e-03
 9.000	17.750	4.1572e-03
 9.000	18.000	5.2961e-03
 9.000	18.250	6.8537e-03
 9.000	18.500	7.3453e-03
 9.000	18.750	7.6773e-03
 9.000	19.000	7.6904e-03
 9.000	19.250	7.6941e-03
 9.000	19.500	7.6975e-03
 9.000	19.750	7.7008e-03
 9.000	20.000	7.7040e-03
 9.000	20.250	7.7067e-03
 9.000	20.500	7.7086e-03
 9.000	20.750	7.7095e-03
 9.000	21.000	7.7105e-03
 9.000	21.250	7.7111e-03
 9.000	21.500	7.7114e-03
 9.000	21.750	7.7114e-03
 9.000	22.000	7.7114e-03
 9.000	22.250	7.7115e-03
 9.000	22.500	7.7115e-03
 9.000	22.750	7.7115e-03
 9.000	23.000	7.7115e-03
 9.000	23.250	7.7115e-03
 9.000	23.500	7.7115e-03
 9.000	23.750	7.7115e-03
 9.000	24.000	7.7116e-03
 9.250	17.000	2.0818e-03
 9.250	17.250	2.3595e-03
 9.250	17.500	2.7700e-03
 9.250	17.750	3.3744e-03
 9.250	18.000	4.2290e-03
 9.250	18.250	5.3976e-03
 9.250	18.500	6.9520e-03
 9.250	18.750	7.3435e-03
 9.250	19.000	7.6760e-03
 9.250	19.250	7.6900e-03
 9.250	19.500	7.6940e-03
 9.250	19.750	7.6975e-03
 9.250	20.000	7.7008e-03
 9.250	20.250	7.7040e-03
 9.250	20.500	7.7067e-03
 9.250	20.750	7.7086e-03
 9.250	21.000	7.7095e-03
 9.250	21.250	7.7105e-03
 9.250	21.500	7.7107e-03
 9.250	21.750	7.7109e-03
 9.250	22.000	7.7108e-03
 9.250	22.250	7.7109e-03
 9.250	22.500	7.7112e-03
 9.250	22.750	7.7112e-03
 9.250	23.000	7.7113e-03
 9.250	23.250	7.7114e-03
 9.250	23.500	7.7114e-03
 9.250	23.750	7.7114e-03
 9.250	24.000	7.7114e-03
 9.500	17.000	1.8955e-03
 9.500	17.250	2.0874e-03
 9.500	17.500	2.3774e-03
 9.500	17.750	2.8169e-03
 9.500	18.000	3.4630e-03
 9.500	18.250	4.3840e-03
 9.500	18.500	5.6325e-03
 9.500	18.750	7.1091e-03
 9.500	19.000	7.3400e-03
 9.500	19.250	7.6737e-03
 9.500	19.500	7.6895e-03
 9.500	19.750	7.6938e-03
 9.500	20.000	7.6975e-03
 9.500	20.250	7.7009e-03
 9.500	20.500	7.7040e-03
 9.500	20.750	7.7063e-03
 9.500	21.000	7.7081e-03
 9.500	21.250	7.7091e-03
 9.500	21.500	7.7099e-03
 9.500	21.750	7.7104e-03
 9.500	22.000	7.7106e-03
 9.500	22.250	7.7107e-03
 9.500	22.500	7.7107e-03
 9.500	22.750	7.7108e-03
 9.500	23.000	7.7108e-03
 9.500	23.250	7.7108e-03
 9.500	23.500	7.7108e-03
 9.500	23.750	7.7108e-03
 9.500	24.000	7.7108e-03
 9.750	17.000	1.7640e-03
 9.750	17.250	1.8974e-03
 9.750	17.500	2.1000e-03
 9.750	17.750	2.4180e-03
 9.750	18.000	2.9154e-03
 9.750	18.250	3.6452e-03
 9.750	18.500	4.6769e-03
 9.750	18.750	6.0786e-03
 9.750	19.000	7.1076e-03
 9.750	19.250	7.3342e-03
 9.750	19.500	7.6695e-03
 9.750	19.750	7.6886e-03
 9.750	20.000	7.6936e-03
 9.750	20.250	7.6974e-03
 9.750	20.500	7.7008e-03
 9.750	20.750	7.7040e-03
 9.750	21.000	7.7064e-03
 9.750	21.250	7.7081e-03
 9.750	21.500	7.7091e-03
 9.750	21.750	7.7100e-03
 9.750	22.000	7.7104e-03
 9.750	22.250	7.7106e-03
 9.750	22.500	7.7107e-03
 9.750	22.750	7.7108e-03
 9.750	23.000	7.7108e-03
 9.750	23.250	7.7108e-03
 9.750	23.500	7.7108e-03
 9.750	23.750	7.7108e-03
 9.750	24.000	7.7108e-03
10.000	17.000	1.6718e-03
10.000	17.250	1.7635e-03
10.000	17.500	1.9049e-03
10.000	17.750	2.1342e-03
10.000	18.000	2.5135e-03
10.000	18.250	3.0913e-03
10.000	18.500	3.9201e-03
10.000	18.750	5.0503e-03
10.000	19.000	6.4519e-03
10.000	19.250	7.1050e-03
10.000	19.500	7.3262e-03
10.000	19.750	7.6626e-03
10.000	20.000	7.6872e-03
10.000	20.250	7.6932e-03
10.000	20.500	7.6974e-03
10.000	20.750	7.7009e-03
10.000	21.000	7.7040e-03
10.000	21.250	7.7066e-03
10.000	21.500	7.7081e-03
10.000	21.750	7.7091e-03
10.000	22.000	7.7100e-03
10.000	22.250	7.7105e-03
10.000	22.500	7.7106e-03
10.000	22.750	7.7107e-03
10.000	23.000	7.7108e-03
10.000	23.250	7.7108e-03
10.000	23.500	7.7108e-03
10.000	23.750	7.7108e-03
10.000	24.000	7.7108e-03
10.250	17.000	1.6075e-03
10.250	17.250	1.6701e-03
10.250	17.500	1.7685e-03
10.250	17.750	1.9346e-03
10.250	18.000	2.2177e-03
10.250	18.250	2.6574e-03
10.250	18.500	3.3075e-03
10.250	18.750	4.2245e-03
10.250	19.000	5.4945e-03
10.250	19.250	6.9342e-03
10.250	19.500	7.1035e-03
10.250	19.750	7.3181e-03
10.250	20.000	7.6529e-03
10.250	20.250	7.6851e-03
10.250	20.500	7.6926e-03
10.250	20.750	7.6973e-03
10.250	21.000	7.7009e-03
10.250	21.250	7.7040e-03
10.250	21.500	7.7067e-03
10.250	21.750	7.7082e-03
10.250	22.000	7.7091e-03
10.250	22.250	7.7100e-03
10.250	22.500	7.7106e-03
10.250	22.750	7.7106e-03
10.250	23.000	7.7107e-03
10.250	23.250	7.7108e-03
10.250	23.500	7.7108e-03
10.250	23.750	7.7108e-03
10.250	24.000	7.7108e-03
10.500	17.000	1.5625e-03
10.500	17.250	1.6049e-03
10.500	17.500	1.6732e-03
10.500	17.750	1.7931e-03
10.500	18.000	2.0023e-03
10.500	18.250	2.3351e-03
10.500	18.500	2.8232e-03
10.500	18.750	3.5490e-03
10.500	19.000	4.5551e-03
10.500	19.250	5.9266e-03
10.500	19.500	6.9648e-03
10.500	19.750	7.1040e-03
10.500	20.000	7.3114e-03
10.500	20.250	7.6415e-03
10.500	20.500	7.6824e-03
10.500	20.750	7.6915e-03
10.500	21.000	7.6970e-03
10.500	21.250	7.7008e-03
10.500	21.500	7.7040e-03
10.500	21.750	7.7067e-03
10.500	22.000	7.7085e-03
10.500	22.250	7.7092e-03
10.500	22.500	7.7100e-03
10.500	22.750	7.7106e-03
10.500	23.000	7.7107e-03
10.500	23.250	7.7107e-03
10.500	23.500	7.7108e-03
10.500	23.750	7.7108e-03
10.500	24.000	7.7108e-03
10.750	17.000	1.5307e-03
10.750	17.250	1.5590e-03
10.750	17.500	1.6062e-03
10.750	17.750	1.6920e-03
10.750	18.000	1.8457e-03
10.750	18.250	2.0928e-03
10.750	18.500	2.4662e-03
10.750	18.750	3.0066e-03
10.750	19.000	3.7712e-03
10.750	19.250	4.8463e-03
10.750	19.500	6.2534e-03
10.750	19.750	6.9690e-03
10.750	20.000	7.1054e-03
10.750	20.250	7.3067e-03
10.750	20.500	7.6318e-03
10.750	20.750	7.6798e-03
10.750	21.000	7.6901e-03
10.750	21.250	7.6967e-03
10.750	21.500	7.7007e-03
10.750	21.750	7.7040e-03
10.750	22.000	7.7067e-03
10.750	22.250	7.7086e-03
10.750	22.500	7.7094e-03
10.750	22.750	7.7101e-03
10.750	23.000	7.7107e-03
10.750	23.250	7.7108e-03
10.750	23.500	7.7108e-03
10.750	23.750	7.7108e-03
10.750	24.000	7.7108e-03
11.000	17.000	1.5078e-03
11.000	17.250	1.5260e-03
11.000	17.500	1.5575e-03
11.000	17.750	1.6192e-03
11.000	18.000	1.7311e-03
11.000	18.250	1.9133e-03
11.000	18.500	2.1886e-03
11.000	18.750	2.5874e-03
11.000	19.000	3.1584e-03
11.000	19.250	3.9702e-03
11.000	19.500	5.1101e-03
11.000	19.750	6.6266e-03
11.000	20.000	6.9701e-03
11.000	20.250	7.1055e-03
11.000	20.500	7.3062e-03
11.000	20.750	7.6281e-03
11.000	21.000	7.6765e-03
11.000	21.250	7.6886e-03
11.000	21.500	7.6961e-03
11.000	21.750	7.7006e-03
11.000	22.000	7.7040e-03
11.000	22.250	7.7066e-03
11.000	22.500	7.7086e-03
11.000	22.750	7.7095e-03
11.000	23.000	7.7102e-03
11.000	23.250	7.7107e-03
11.000	23.500	7.7109e-03
11.000	23.750	7.7109e-03
11.000	24.000	7.7109e-03
11.250	17.000	1.4909e-03
11.250	17.250	1.5016e-03
11.250	17.500	1.5222e-03
11.250	17.750	1.5659e-03
11.250	18.000	1.6477e-03
11.250	18.250	1.7795e-03
11.250	18.500	1.9781e-03
11.250	18.750	2.2747e-03
11.250	19.000	2.6891e-03
11.250	19.250	3.2812e-03
11.250	19.500	4.1291e-03
11.250	19.750	5.3394e-03
11.250	20.000	6.7197e-03
11.250	20.250	6.9705e-03
11.250	20.500	7.1119e-03
11.250	20.750	7.3116e-03
11.250	21.000	7.6336e-03
11.250	21.250	7.6742e-03
11.250	21.500	7.6870e-03
11.250	21.750	7.6954e-03
11.250	22.000	7.7003e-03
11.250	22.250	7.7038e-03
11.250	22.500	7.7066e-03
11.250	22.750	7.7086e-03
11.250	23.000	7.7095e-03
11.250	23.250	7.7104e-03
11.250	23.500	7.7107e-03
11.250	23.750	7.7109e-03
11.250	24.000	7.7109e-03
11.500	17.000	1.4781e-03
11.500	17.250	1.4836e-03
11.500	17.500	1.4968e-03
11.500	17.750	1.5276e-03
11.500	18.000	1.5865e-03
11.500	18.250	1.6815e-03
11.500	18.500	1.8243e-03
11.500	18.750	2.0368e-03
11.500	19.000	2.3370e-03
11.500	19.250	2.7651e-03
11.500	19.500	3.3791e-03
11.500	19.750	4.2664e-03
11.500	20.000	5.5434e-03
11.500	20.250	6.7646e-03
11.500	20.500	6.9719e-03
11.500	20.750	7.1149e-03
11.500	21.000	7.3279e-03
11.500	21.250	7.6445e-03
11.500	21.500	7.6712e-03
11.500	21.750	7.6853e-03
11.500	22.000	7.6946e-03
11.500	22.250	7.6999e-03
11.500	22.500	7.7036e-03
11.500	22.750	7.7065e-03
11.500	23.000	7.7085e-03
11.500	23.250	7.7095e-03
11.500	23.500	7.7105e-03
11.500	23.750	7.7108e-03
11.500	24.000	7.7109e-03
11.750	17.000	1.4686e-03
11.750	17.250	1.4705e-03
11.750	17.500	1.4785e-03
11.750	17.750	1.5001e-03
11.750	18.000	1.5417e-03
11.750	18.250	1.6094e-03
11.750	18.500	1.7114e-03
11.750	18.750	1.8602e-03
11.750	19.000	2.0797e-03
11.750	19.250	2.3872e-03
11.750	19.500	2.8277e-03
11.750	19.750	3.4574e-03
11.750	20.000	4.3820e-03
11.750	20.250	5.7167e-03
11.750	20.500	6.7996e-03
11.750	20.750	6.9768e-03
11.750	21.000	7.1284e-03
11.750	21.250	7.3710e-03
11.750	21.500	7.6441e-03
11.750	21.750	7.6678e-03
11.750	22.000	7.6832e-03
11.750	22.250	7.6937e-03
11.750	22.500	7.6995e-03
11.750	22.750	7.7034e-03
11.750	23.000	7.7063e-03
11.750	23.250	7.7085e-03
11.750	23.500	7.7095e-03
11.750	23.750	7.7105e-03
11.750	24.000	7.7109e-03
12.000	17.000	1.4621e-03
12.000	17.250	1.4613e-03
12.000	17.500	1.4658e-03
12.000	17.750	1.4806e-03
12.000	18.000	1.5097e-03
12.000	18.250	1.5574e-03
12.000	18.500	1.6299e-03
12.000	18.750	1.7370e-03
12.000	19.000	1.8928e-03
12.000	19.250	2.1142e-03
12.000	19.500	2.4289e-03
12.000	19.750	2.8775e-03
12.000	20.000	3.5285e-03
12.000	20.250	4.4788e-03
12.000	20.500	5.8625e-03
12.000	20.750	6.7880e-03
12.000	21.000	6.9855e-03
12.000	21.250	7.1695e-03
12.000	21.500	7.4519e-03
12.000	21.750	7.6400e-03
12.000	22.000	7.6653e-03
12.000	22.250	7.6819e-03
12.000	22.500	7.6927e-03
12.000	22.750	7.6990e-03
12.000	23.000	7.7031e-03
12.000	23.250	7.7062e-03
12.000	23.500	7.7085e-03
12.000	23.750	7.7095e-03
12.000	24.000	7.7105e-03
12.250	17.000	1.4584e-03
12.250	17.250	1.4559e-03
12.250	17.500	1.4576e-03
12.250	17.750	1.4674e-03
12.250	18.000	1.4876e-03
12.250	18.250	1.5210e-03
12.250	18.500	1.5720e-03
12.250	18.750	1.6491e-03
12.250	19.000	1.7603e-03
12.250	19.250	1.9187e-03
12.250	19.500	2.1435e-03
12.250	19.750	2.4653e-03
12.250	20.000	2.9198e-03
12.250	20.250	3.5845e-03
12.250	20.500	4.5669e-03
12.250	20.750	6.0002e-03
12.250	21.000	6.7830e-03
12.250	21.250	7.0091e-03
12.250	21.500	7.2300e-03
12.250	21.750	7.5499e-03
12.250	22.000	7.6346e-03
12.250	22.250	7.6593e-03
12.250	22.500	7.6786e-03
12.250	22.750	7.6914e-03
12.250	23.000	7.6985e-03
12.250	23.250	7.7027e-03
12.250	23.500	7.7060e-03
12.250	23.750	7.7084e-03
12.250	24.000	7.7095e-03
12.500	17.000	1.4563e-03
12.500	17.250	1.4533e-03
12.500	17.500	1.4535e-03
12.500	17.750	1.4593e-03
12.500	18.000	1.4725e-03
12.500	18.250	1.4954e-03
12.500	18.500	1.5318e-03
12.500	18.750	1.5863e-03
12.500	19.000	1.6655e-03
12.500	19.250	1.7796e-03
12.500	19.500	1.9389e-03
12.500	19.750	2.1670e-03
12.500	20.000	2.4921e-03
12.500	20.250	2.9561e-03
12.500	20.500	3.6425e-03
12.500	20.750	4.6533e-03
12.500	21.000	6.1219e-03
12.500	21.250	6.7998e-03
12.500	21.500	7.0489e-03
12.500	21.750	7.3045e-03
12.500	22.000	7.5932e-03
12.500	22.250	7.6291e-03
12.500	22.500	7.6546e-03
12.500	22.750	7.6755e-03
12.500	23.000	7.6896e-03
12.500	23.250	7.6977e-03
12.500	23.500	7.7023e-03
12.500	23.750	7.7058e-03
12.500	24.000	7.7083e-03
12.750	17.000	1.1181e-03
12.750	17.250	1.4358e-03
12.750	17.500	1.4519e-03
12.750	17.750	1.4548e-03
12.750	18.000	1.4627e-03
12.750	18.250	1.4779e-03
12.750	18.500	1.5031e-03
12.750	18.750	1.5418e-03
12.750	19.000	1.5985e-03
12.750	19.250	1.6796e-03
12.750	19.500	1.7939e-03
12.750	19.750	1.9553e-03
12.750	20.000	2.1860e-03
12.750	20.250	2.5147e-03
12.750	20.500	2.9944e-03
12.750	20.750	3.6979e-03
12.750	21.000	4.7630e-03
12.750	21.250	6.3099e-03
12.750	21.500	6.8224e-03
12.750	21.750	7.1075e-03
12.750	22.000	7.3844e-03
12.750	22.250	7.5917e-03
12.750	22.500	7.6244e-03
12.750	22.750	7.6511e-03
12.750	23.000	7.6727e-03
12.750	23.250	7.6876e-03
12.750	23.500	7.6966e-03
12.750	23.750	7.7016e-03
12.750	24.000	7.7054e-03
13.000	17.000	5.5852e-04
13.000	17.250	1.0321e-03
13.000	17.500	1.3588e-03
13.000	17.750	1.4519e-03
13.000	18.000	1.4563e-03
13.000	18.250	1.4658e-03
13.000	18.500	1.4829e-03
13.000	18.750	1.5100e-03
13.000	19.000	1.5501e-03
13.000	19.250	1.6078e-03
13.000	19.500	1.6895e-03
13.000	19.750	1.8044e-03
13.000	20.000	1.9672e-03
13.000	20.250	2.2007e-03
13.000	20.500	2.5367e-03
13.000	20.750	3.0318e-03
13.000	21.000	3.7671e-03
13.000	21.250	4.8941e-03
13.000	21.500	6.4374e-03
13.000	21.750	6.8675e-03
13.000	22.000	7.1574e-03
13.000	22.250	7.4444e-03
13.000	22.500	7.5889e-03
13.000	22.750	7.6213e-03
13.000	23.000	7.6485e-03
13.000	23.250	7.6699e-03
13.000	23.500	7.6858e-03
13.000	23.750	7.6951e-03
13.000	24.000	7.7007e-03
13.250	17.000	3.3992e-04
13.250	17.250	6.4716e-04
13.250	17.500	1.2460e-03
13.250	17.750	1.4495e-03
13.250	18.000	1.4519e-03
13.250	18.250	1.4574e-03
13.250	18.500	1.4686e-03
13.250	18.750	1.4870e-03
13.250	19.000	1.5152e-03
13.250	19.250	1.5560e-03
13.250	19.500	1.6142e-03
13.250	19.750	1.6963e-03
13.250	20.000	1.8119e-03
13.250	20.250	1.9766e-03
13.250	20.500	2.2154e-03
13.250	20.750	2.5596e-03
13.250	21.000	3.0776e-03
13.250	21.250	3.8537e-03
13.250	21.500	4.9794e-03
13.250	21.750	6.4917e-03
13.250	22.000	6.8897e-03
13.250	22.250	7.1922e-03
13.250	22.500	7.4620e-03
13.250	22.750	7.5862e-03
13.250	23.000	7.6183e-03
13.250	23.250	7.6449e-03
13.250	23.500	7.6676e-03
13.250	23.750	7.6837e-03
13.250	24.000	7.6933e-03
13.500	17.000	2.0436e-04
13.500	17.250	4.0214e-04
13.500	17.500	8.3712e-04
13.500	17.750	1.2921e-03
13.500	18.000	1.4481e-03
13.500	18.250	1.4514e-03
13.500	18.500	1.4582e-03
13.500	18.750	1.4704e-03
13.500	19.000	1.4899e-03
13.500	19.250	1.5185e-03
13.500	19.500	1.5599e-03
13.500	19.750	1.6181e-03
13.500	20.000	1.6998e-03
13.500	20.250	1.8161e-03
13.500	20.500	1.9835e-03
13.500	20.750	2.2255e-03
13.500	21.000	2.5779e-03
13.500	21.250	3.1174e-03
13.500	21.500	3.8869e-03
13.500	21.750	5.0779e-03
13.500	22.000	6.5133e-03
13.500	22.250	6.8876e-03
13.500	22.500	7.1815e-03
13.500	22.750	7.4500e-03
13.500	23.000	7.5821e-03
13.500	23.250	7.6139e-03
13.500	23.500	7.6424e-03
13.500	23.750	7.6653e-03
13.500	24.000	7.6814e-03
13.750	17.000	1.2395e-04
13.750	17.250	2.4436e-04
13.750	17.500	5.4247e-04
13.750	17.750	9.5391e-04
13.750	18.000	1.4226e-03
13.750	18.250	1.4464e-03
13.750	18.500	1.4505e-03
13.750	18.750	1.4582e-03
13.750	19.000	1.4714e-03
13.750	19.250	1.4914e-03
13.750	19.500	1.5203e-03
13.750	19.750	1.5613e-03
13.750	20.000	1.6190e-03
13.750	20.250	1.7007e-03
13.750	20.500	1.8174e-03
13.750	20.750	1.9869e-03
13.750	21.000	2.2337e-03
13.750	21.250	2.5975e-03
13.750	21.500	3.1267e-03
13.750	21.750	3.9592e-03
13.750	22.000	5.1965e-03
13.750	22.250	6.5310e-03
13.750	22.500	6.8649e-03
13.750	22.750	7.1663e-03
13.750	23.000	7.4409e-03
13.750	23.250	7.5755e-03
13.750	23.500	7.6087e-03
13.750	23.750	7.6389e-03
13.750	24.000	7.6621e-03
14.000	17.000	7.3992e-05
14.000	17.250	1.4914e-04
14.000	17.500	3.3243e-04
14.000	17.750	6.5770e-04
14.000	18.000	1.1150e-03
14.000	18.250	1.4421e-03
14.000	18.500	1.4446e-03
14.000	18.750	1.4493e-03
14.000	19.000	1.4577e-03
14.000	19.250	1.4713e-03
14.000	19.500	1.4914e-03
14.000	19.750	1.5200e-03
14.000	20.000	1.5602e-03
14.000	20.250	1.6168e-03
14.000	20.500	1.6979e-03
14.000	20.750	1.8151e-03
14.000	21.000	1.9847e-03
14.000	21.250	2.2385e-03
14.000	21.500	2.5982e-03
14.000	21.750	3.1658e-03
14.000	22.000	4.0518e-03
14.000	22.250	5.3628e-03
14.000	22.500	6.5351e-03
14.000	22.750	6.8391e-03
14.000	23.000	7.1424e-03
14.000	23.250	7.4424e-03
14.000	23.500	7.5647e-03
14.000	23.750	7.5999e-03
14.000	24.000	7.6331e-03
