InwC 3648.00A  relative to Inci 1215.00A scaled to 1215A.
Hden   Phi(H)  Eq_Width (A)
 7.000	17.000	5.7407e-03
 7.000	17.250	5.7432e-03
 7.000	17.500	5.7456e-03
 7.000	17.750	5.7481e-03
 7.000	18.000	5.7505e-03
 7.000	18.250	5.7526e-03
 7.000	18.500	5.7540e-03
 7.000	18.750	5.7547e-03
 7.000	19.000	5.7555e-03
 7.000	19.250	5.7559e-03
 7.000	19.500	5.7560e-03
 7.000	19.750	5.7562e-03
 7.000	20.000	5.7562e-03
 7.000	20.250	5.7563e-03
 7.000	20.500	5.7563e-03
 7.000	20.750	5.7563e-03
 7.000	21.000	5.7563e-03
 7.000	21.250	5.7563e-03
 7.000	21.500	5.7565e-03
 7.000	21.750	5.7563e-03
 7.000	22.000	5.7563e-03
 7.000	22.250	5.7563e-03
 7.000	22.500	5.7563e-03
 7.000	22.750	5.7565e-03
 7.000	23.000	5.7565e-03
 7.000	23.250	5.7563e-03
 7.000	23.500	5.7563e-03
 7.000	23.750	5.7563e-03
 7.000	24.000	5.7563e-03
 7.250	17.000	5.7312e-03
 7.250	17.250	5.7407e-03
 7.250	17.500	5.7432e-03
 7.250	17.750	5.7456e-03
 7.250	18.000	5.7481e-03
 7.250	18.250	5.7505e-03
 7.250	18.500	5.7526e-03
 7.250	18.750	5.7540e-03
 7.250	19.000	5.7547e-03
 7.250	19.250	5.7554e-03
 7.250	19.500	5.7559e-03
 7.250	19.750	5.7560e-03
 7.250	20.000	5.7562e-03
 7.250	20.250	5.7562e-03
 7.250	20.500	5.7563e-03
 7.250	20.750	5.7563e-03
 7.250	21.000	5.7563e-03
 7.250	21.250	5.7563e-03
 7.250	21.500	5.7563e-03
 7.250	21.750	5.7574e-03
 7.250	22.000	5.7563e-03
 7.250	22.250	5.7563e-03
 7.250	22.500	5.7563e-03
 7.250	22.750	5.7569e-03
 7.250	23.000	5.7569e-03
 7.250	23.250	5.7563e-03
 7.250	23.500	5.7563e-03
 7.250	23.750	5.7563e-03
 7.250	24.000	5.7563e-03
 7.500	17.000	5.5070e-03
 7.500	17.250	5.7317e-03
 7.500	17.500	5.7407e-03
 7.500	17.750	5.7432e-03
 7.500	18.000	5.7457e-03
 7.500	18.250	5.7481e-03
 7.500	18.500	5.7505e-03
 7.500	18.750	5.7526e-03
 7.500	19.000	5.7540e-03
 7.500	19.250	5.7547e-03
 7.500	19.500	5.7554e-03
 7.500	19.750	5.7559e-03
 7.500	20.000	5.7560e-03
 7.500	20.250	5.7562e-03
 7.500	20.500	5.7562e-03
 7.500	20.750	5.7562e-03
 7.500	21.000	5.7563e-03
 7.500	21.250	5.7563e-03
 7.500	21.500	5.7563e-03
 7.500	21.750	5.7563e-03
 7.500	22.000	5.7563e-03
 7.500	22.250	5.7563e-03
 7.500	22.500	5.7563e-03
 7.500	22.750	5.7563e-03
 7.500	23.000	5.7566e-03
 7.500	23.250	5.7569e-03
 7.500	23.500	5.7563e-03
 7.500	23.750	5.7570e-03
 7.500	24.000	5.7563e-03
 7.750	17.000	5.0915e-03
 7.750	17.250	5.5080e-03
 7.750	17.500	5.7320e-03
 7.750	17.750	5.7407e-03
 7.750	18.000	5.7432e-03
 7.750	18.250	5.7457e-03
 7.750	18.500	5.7481e-03
 7.750	18.750	5.7505e-03
 7.750	19.000	5.7526e-03
 7.750	19.250	5.7540e-03
 7.750	19.500	5.7547e-03
 7.750	19.750	5.7554e-03
 7.750	20.000	5.7559e-03
 7.750	20.250	5.7561e-03
 7.750	20.500	5.7562e-03
 7.750	20.750	5.7562e-03
 7.750	21.000	5.7562e-03
 7.750	21.250	5.7562e-03
 7.750	21.500	5.7562e-03
 7.750	21.750	5.7563e-03
 7.750	22.000	5.7563e-03
 7.750	22.250	5.7563e-03
 7.750	22.500	5.7563e-03
 7.750	22.750	5.7565e-03
 7.750	23.000	5.7565e-03
 7.750	23.250	5.7563e-03
 7.750	23.500	5.7569e-03
 7.750	23.750	5.7569e-03
 7.750	24.000	5.7563e-03
 8.000	17.000	3.6081e-03
 8.000	17.250	5.0607e-03
 8.000	17.500	5.5061e-03
 8.000	17.750	5.7311e-03
 8.000	18.000	5.7407e-03
 8.000	18.250	5.7432e-03
 8.000	18.500	5.7457e-03
 8.000	18.750	5.7481e-03
 8.000	19.000	5.7505e-03
 8.000	19.250	5.7526e-03
 8.000	19.500	5.7540e-03
 8.000	19.750	5.7547e-03
 8.000	20.000	5.7555e-03
 8.000	20.250	5.7559e-03
 8.000	20.500	5.7560e-03
 8.000	20.750	5.7561e-03
 8.000	21.000	5.7562e-03
 8.000	21.250	5.7562e-03
 8.000	21.500	5.7562e-03
 8.000	21.750	5.7562e-03
 8.000	22.000	5.7562e-03
 8.000	22.250	5.7563e-03
 8.000	22.500	5.7562e-03
 8.000	22.750	5.7564e-03
 8.000	23.000	5.7563e-03
 8.000	23.250	5.7566e-03
 8.000	23.500	5.7563e-03
 8.000	23.750	5.7563e-03
 8.000	24.000	5.7563e-03
 8.250	17.000	2.5359e-03
 8.250	17.250	3.6223e-03
 8.250	17.500	5.0661e-03
 8.250	17.750	5.5068e-03
 8.250	18.000	5.7314e-03
 8.250	18.250	5.7407e-03
 8.250	18.500	5.7433e-03
 8.250	18.750	5.7457e-03
 8.250	19.000	5.7481e-03
 8.250	19.250	5.7505e-03
 8.250	19.500	5.7526e-03
 8.250	19.750	5.7540e-03
 8.250	20.000	5.7547e-03
 8.250	20.250	5.7555e-03
 8.250	20.500	5.7559e-03
 8.250	20.750	5.7561e-03
 8.250	21.000	5.7561e-03
 8.250	21.250	5.7562e-03
 8.250	21.500	5.7562e-03
 8.250	21.750	5.7562e-03
 8.250	22.000	5.7562e-03
 8.250	22.250	5.7562e-03
 8.250	22.500	5.7562e-03
 8.250	22.750	5.7564e-03
 8.250	23.000	5.7562e-03
 8.250	23.250	5.7578e-03
 8.250	23.500	5.7562e-03
 8.250	23.750	5.7562e-03
 8.250	24.000	5.7567e-03
 8.500	17.000	1.7800e-03
 8.500	17.250	2.5545e-03
 8.500	17.500	3.6380e-03
 8.500	17.750	5.0731e-03
 8.500	18.000	5.5074e-03
 8.500	18.250	5.7317e-03
 8.500	18.500	5.7407e-03
 8.500	18.750	5.7433e-03
 8.500	19.000	5.7458e-03
 8.500	19.250	5.7481e-03
 8.500	19.500	5.7505e-03
 8.500	19.750	5.7526e-03
 8.500	20.000	5.7540e-03
 8.500	20.250	5.7547e-03
 8.500	20.500	5.7555e-03
 8.500	20.750	5.7559e-03
 8.500	21.000	5.7560e-03
 8.500	21.250	5.7562e-03
 8.500	21.500	5.7562e-03
 8.500	21.750	5.7562e-03
 8.500	22.000	5.7562e-03
 8.500	22.250	5.7562e-03
 8.500	22.500	5.7562e-03
 8.500	22.750	5.7562e-03
 8.500	23.000	5.7562e-03
 8.500	23.250	5.7564e-03
 8.500	23.500	5.7562e-03
 8.500	23.750	5.7562e-03
 8.500	24.000	5.7562e-03
 8.750	17.000	1.2529e-03
 8.750	17.250	1.8007e-03
 8.750	17.500	2.5809e-03
 8.750	17.750	3.6488e-03
 8.750	18.000	5.0857e-03
 8.750	18.250	5.5078e-03
 8.750	18.500	5.7318e-03
 8.750	18.750	5.7407e-03
 8.750	19.000	5.7433e-03
 8.750	19.250	5.7458e-03
 8.750	19.500	5.7482e-03
 8.750	19.750	5.7506e-03
 8.750	20.000	5.7526e-03
 8.750	20.250	5.7540e-03
 8.750	20.500	5.7547e-03
 8.750	20.750	5.7554e-03
 8.750	21.000	5.7559e-03
 8.750	21.250	5.7560e-03
 8.750	21.500	5.7561e-03
 8.750	21.750	5.7562e-03
 8.750	22.000	5.7562e-03
 8.750	22.250	5.7562e-03
 8.750	22.500	5.7562e-03
 8.750	22.750	5.7562e-03
 8.750	23.000	5.7568e-03
 8.750	23.250	5.7562e-03
 8.750	23.500	5.7564e-03
 8.750	23.750	5.7562e-03
 8.750	24.000	5.7562e-03
 9.000	17.000	8.8461e-04
 9.000	17.250	1.2709e-03
 9.000	17.500	1.8311e-03
 9.000	17.750	2.6272e-03
 9.000	18.000	3.7012e-03
 9.000	18.250	5.1273e-03
 9.000	18.500	5.5078e-03
 9.000	18.750	5.7318e-03
 9.000	19.000	5.7407e-03
 9.000	19.250	5.7433e-03
 9.000	19.500	5.7458e-03
 9.000	19.750	5.7482e-03
 9.000	20.000	5.7506e-03
 9.000	20.250	5.7526e-03
 9.000	20.500	5.7540e-03
 9.000	20.750	5.7547e-03
 9.000	21.000	5.7555e-03
 9.000	21.250	5.7559e-03
 9.000	21.500	5.7560e-03
 9.000	21.750	5.7561e-03
 9.000	22.000	5.7562e-03
 9.000	22.250	5.7562e-03
 9.000	22.500	5.7562e-03
 9.000	22.750	5.7562e-03
 9.000	23.000	5.7562e-03
 9.000	23.250	5.7562e-03
 9.000	23.500	5.7562e-03
 9.000	23.750	5.7562e-03
 9.000	24.000	5.7563e-03
 9.250	17.000	6.2790e-04
 9.250	17.250	8.9992e-04
 9.250	17.500	1.3016e-03
 9.250	17.750	1.8896e-03
 9.250	18.000	2.7123e-03
 9.250	18.250	3.8112e-03
 9.250	18.500	5.2253e-03
 9.250	18.750	5.5072e-03
 9.250	19.000	5.7314e-03
 9.250	19.250	5.7407e-03
 9.250	19.500	5.7433e-03
 9.250	19.750	5.7458e-03
 9.250	20.000	5.7482e-03
 9.250	20.250	5.7506e-03
 9.250	20.500	5.7526e-03
 9.250	20.750	5.7540e-03
 9.250	21.000	5.7547e-03
 9.250	21.250	5.7554e-03
 9.250	21.500	5.7556e-03
 9.250	21.750	5.7557e-03
 9.250	22.000	5.7557e-03
 9.250	22.250	5.7558e-03
 9.250	22.500	5.7560e-03
 9.250	22.750	5.7560e-03
 9.250	23.000	5.7560e-03
 9.250	23.250	5.7561e-03
 9.250	23.500	5.7561e-03
 9.250	23.750	5.7561e-03
 9.250	24.000	5.7561e-03
 9.500	17.000	4.5012e-04
 9.500	17.250	6.4091e-04
 9.500	17.500	9.2848e-04
 9.500	17.750	1.3624e-03
 9.500	18.000	1.9955e-03
 9.500	18.250	2.8822e-03
 9.500	18.500	4.0486e-03
 9.500	18.750	5.3795e-03
 9.500	19.000	5.5058e-03
 9.500	19.250	5.7305e-03
 9.500	19.500	5.7407e-03
 9.500	19.750	5.7433e-03
 9.500	20.000	5.7458e-03
 9.500	20.250	5.7483e-03
 9.500	20.500	5.7506e-03
 9.500	20.750	5.7523e-03
 9.500	21.000	5.7537e-03
 9.500	21.250	5.7544e-03
 9.500	21.500	5.7550e-03
 9.500	21.750	5.7554e-03
 9.500	22.000	5.7556e-03
 9.500	22.250	5.7556e-03
 9.500	22.500	5.7556e-03
 9.500	22.750	5.7556e-03
 9.500	23.000	5.7556e-03
 9.500	23.250	5.7556e-03
 9.500	23.500	5.7557e-03
 9.500	23.750	5.7557e-03
 9.500	24.000	5.7557e-03
 9.750	17.000	3.2494e-04
 9.750	17.250	4.5984e-04
 9.750	17.500	6.6461e-04
 9.750	17.750	9.8428e-04
 9.750	18.000	1.4800e-03
 9.750	18.250	2.1966e-03
 9.750	18.500	3.1859e-03
 9.750	18.750	4.4839e-03
 9.750	19.000	5.3791e-03
 9.750	19.250	5.5035e-03
 9.750	19.500	5.7288e-03
 9.750	19.750	5.7407e-03
 9.750	20.000	5.7433e-03
 9.750	20.250	5.7458e-03
 9.750	20.500	5.7483e-03
 9.750	20.750	5.7506e-03
 9.750	21.000	5.7524e-03
 9.750	21.250	5.7537e-03
 9.750	21.500	5.7544e-03
 9.750	21.750	5.7551e-03
 9.750	22.000	5.7554e-03
 9.750	22.250	5.7556e-03
 9.750	22.500	5.7556e-03
 9.750	22.750	5.7556e-03
 9.750	23.000	5.7556e-03
 9.750	23.250	5.7556e-03
 9.750	23.500	5.7556e-03
 9.750	23.750	5.7556e-03
 9.750	24.000	5.7556e-03
10.000	17.000	2.3712e-04
10.000	17.250	3.3226e-04
10.000	17.500	4.7877e-04
10.000	17.750	7.1465e-04
10.000	18.000	1.0996e-03
10.000	18.250	1.6785e-03
10.000	18.500	2.4918e-03
10.000	18.750	3.5624e-03
10.000	19.000	4.8417e-03
10.000	19.250	5.3770e-03
10.000	19.500	5.4998e-03
10.000	19.750	5.7255e-03
10.000	20.000	5.7404e-03
10.000	20.250	5.7432e-03
10.000	20.500	5.7458e-03
10.000	20.750	5.7483e-03
10.000	21.000	5.7507e-03
10.000	21.250	5.7525e-03
10.000	21.500	5.7537e-03
10.000	21.750	5.7544e-03
10.000	22.000	5.7551e-03
10.000	22.250	5.7555e-03
10.000	22.500	5.7556e-03
10.000	22.750	5.7556e-03
10.000	23.000	5.7556e-03
10.000	23.250	5.7556e-03
10.000	23.500	5.7557e-03
10.000	23.750	5.7557e-03
10.000	24.000	5.7557e-03
10.250	17.000	1.7564e-04
10.250	17.250	2.4296e-04
10.250	17.500	3.4840e-04
10.250	17.750	5.2395e-04
10.250	18.000	8.1877e-04
10.250	18.250	1.2690e-03
10.250	18.500	1.9216e-03
10.250	18.750	2.8146e-03
10.250	19.000	3.9964e-03
10.250	19.250	5.2928e-03
10.250	19.500	5.3738e-03
10.250	19.750	5.4947e-03
10.250	20.000	5.7211e-03
10.250	20.250	5.7402e-03
10.250	20.500	5.7431e-03
10.250	20.750	5.7458e-03
10.250	21.000	5.7483e-03
10.250	21.250	5.7507e-03
10.250	21.500	5.7526e-03
10.250	21.750	5.7538e-03
10.250	22.000	5.7544e-03
10.250	22.250	5.7551e-03
10.250	22.500	5.7556e-03
10.250	22.750	5.7556e-03
10.250	23.000	5.7556e-03
10.250	23.250	5.7556e-03
10.250	23.500	5.7556e-03
10.250	23.750	5.7556e-03
10.250	24.000	5.7556e-03
10.500	17.000	1.3243e-04
10.500	17.250	1.8049e-04
10.500	17.500	2.5704e-04
10.500	17.750	3.8864e-04
10.500	18.000	6.1292e-04
10.500	18.250	9.6132e-04
10.500	18.500	1.4588e-03
10.500	18.750	2.1749e-03
10.500	19.000	3.1334e-03
10.500	19.250	4.3966e-03
10.500	19.500	5.3059e-03
10.500	19.750	5.3706e-03
10.500	20.000	5.4903e-03
10.500	20.250	5.7147e-03
10.500	20.500	5.7399e-03
10.500	20.750	5.7430e-03
10.500	21.000	5.7458e-03
10.500	21.250	5.7484e-03
10.500	21.500	5.7507e-03
10.500	21.750	5.7526e-03
10.500	22.000	5.7539e-03
10.500	22.250	5.7545e-03
10.500	22.500	5.7551e-03
10.500	22.750	5.7556e-03
10.500	23.000	5.7556e-03
10.500	23.250	5.7556e-03
10.500	23.500	5.7556e-03
10.500	23.750	5.7557e-03
10.500	24.000	5.7557e-03
10.750	17.000	1.0198e-04
10.750	17.250	1.3638e-04
10.750	17.500	1.9276e-04
10.750	17.750	2.9169e-04
10.750	18.000	4.6033e-04
10.750	18.250	7.2099e-04
10.750	18.500	1.1017e-03
10.750	18.750	1.6401e-03
10.750	19.000	2.3874e-03
10.750	19.250	3.4109e-03
10.750	19.500	4.7093e-03
10.750	19.750	5.3035e-03
10.750	20.000	5.3677e-03
10.750	20.250	5.4868e-03
10.750	20.500	5.7100e-03
10.750	20.750	5.7390e-03
10.750	21.000	5.7428e-03
10.750	21.250	5.7458e-03
10.750	21.500	5.7483e-03
10.750	21.750	5.7507e-03
10.750	22.000	5.7526e-03
10.750	22.250	5.7540e-03
10.750	22.500	5.7547e-03
10.750	22.750	5.7551e-03
10.750	23.000	5.7556e-03
10.750	23.250	5.7557e-03
10.750	23.500	5.7556e-03
10.750	23.750	5.7556e-03
10.750	24.000	5.7556e-03
11.000	17.000	8.0329e-05
11.000	17.250	1.0510e-04
11.000	17.500	1.4658e-04
11.000	17.750	2.2066e-04
11.000	18.000	3.4535e-04
11.000	18.250	5.3712e-04
11.000	18.500	8.1770e-04
11.000	18.750	1.2191e-03
11.000	19.000	1.7875e-03
11.000	19.250	2.5821e-03
11.000	19.500	3.6672e-03
11.000	19.750	5.0807e-03
11.000	20.000	5.3009e-03
11.000	20.250	5.3665e-03
11.000	20.500	5.4867e-03
11.000	20.750	5.7082e-03
11.000	21.000	5.7384e-03
11.000	21.250	5.7423e-03
11.000	21.500	5.7457e-03
11.000	21.750	5.7483e-03
11.000	22.000	5.7507e-03
11.000	22.250	5.7526e-03
11.000	22.500	5.7540e-03
11.000	22.750	5.7547e-03
11.000	23.000	5.7552e-03
11.000	23.250	5.7556e-03
11.000	23.500	5.7557e-03
11.000	23.750	5.7557e-03
11.000	24.000	5.7557e-03
11.250	17.000	6.5103e-05
11.250	17.250	8.2716e-05
11.250	17.500	1.1317e-04
11.250	17.750	1.6782e-04
11.250	18.000	2.5901e-04
11.250	18.250	3.9687e-04
11.250	18.500	6.0016e-04
11.250	18.750	9.0082e-04
11.250	19.000	1.3196e-03
11.250	19.250	1.9112e-03
11.250	19.500	2.7444e-03
11.250	19.750	3.9053e-03
11.250	20.000	5.1802e-03
11.250	20.250	5.2989e-03
11.250	20.500	5.3662e-03
11.250	20.750	5.4915e-03
11.250	21.000	5.7154e-03
11.250	21.250	5.7375e-03
11.250	21.500	5.7418e-03
11.250	21.750	5.7454e-03
11.250	22.000	5.7482e-03
11.250	22.250	5.7506e-03
11.250	22.500	5.7526e-03
11.250	22.750	5.7540e-03
11.250	23.000	5.7547e-03
11.250	23.250	5.7554e-03
11.250	23.500	5.7556e-03
11.250	23.750	5.7557e-03
11.250	24.000	5.7558e-03
11.500	17.000	5.4568e-05
11.500	17.250	6.6996e-05
11.500	17.500	8.9053e-05
11.500	17.750	1.2864e-04
11.500	18.000	1.9374e-04
11.500	18.250	2.9267e-04
11.500	18.500	4.3934e-04
11.500	18.750	6.5646e-04
11.500	19.000	9.6305e-04
11.500	19.250	1.3980e-03
11.500	19.500	2.0164e-03
11.500	19.750	2.8956e-03
11.500	20.000	4.1273e-03
11.500	20.250	5.2242e-03
11.500	20.500	5.2979e-03
11.500	20.750	5.3697e-03
11.500	21.000	5.5063e-03
11.500	21.250	5.7267e-03
11.500	21.500	5.7372e-03
11.500	21.750	5.7412e-03
11.500	22.000	5.7451e-03
11.500	22.250	5.7481e-03
11.500	22.500	5.7505e-03
11.500	22.750	5.7525e-03
11.500	23.000	5.7540e-03
11.500	23.250	5.7547e-03
11.500	23.500	5.7554e-03
11.500	23.750	5.7556e-03
11.500	24.000	5.7558e-03
11.750	17.000	4.7243e-05
11.750	17.250	5.6049e-05
11.750	17.500	7.1770e-05
11.750	17.750	9.9671e-05
11.750	18.000	1.4502e-04
11.750	18.250	2.1531e-04
11.750	18.500	3.2049e-04
11.750	18.750	4.7391e-04
11.750	19.000	6.9942e-04
11.750	19.250	1.0156e-03
11.750	19.500	1.4664e-03
11.750	19.750	2.1057e-03
11.750	20.000	3.0291e-03
11.750	20.250	4.3240e-03
11.750	20.500	5.2463e-03
11.750	20.750	5.2984e-03
11.750	21.000	5.3804e-03
11.750	21.250	5.5427e-03
11.750	21.500	5.7299e-03
11.750	21.750	5.7365e-03
11.750	22.000	5.7408e-03
11.750	22.250	5.7446e-03
11.750	22.500	5.7478e-03
11.750	22.750	5.7503e-03
11.750	23.000	5.7523e-03
11.750	23.250	5.7539e-03
11.750	23.500	5.7547e-03
11.750	23.750	5.7554e-03
11.750	24.000	5.7558e-03
12.000	17.000	4.2140e-05
12.000	17.250	4.8313e-05
12.000	17.500	5.9342e-05
12.000	17.750	7.8519e-05
12.000	18.000	1.0971e-04
12.000	18.250	1.5901e-04
12.000	18.500	2.3399e-04
12.000	18.750	3.4502e-04
12.000	19.000	5.0634e-04
12.000	19.250	7.3556e-04
12.000	19.500	1.0608e-03
12.000	19.750	1.5233e-03
12.000	20.000	2.1886e-03
12.000	20.250	3.1443e-03
12.000	20.500	4.4928e-03
12.000	20.750	5.2409e-03
12.000	21.000	5.3042e-03
12.000	21.250	5.4118e-03
12.000	21.500	5.6076e-03
12.000	21.750	5.7298e-03
12.000	22.000	5.7357e-03
12.000	22.250	5.7401e-03
12.000	22.500	5.7440e-03
12.000	22.750	5.7474e-03
12.000	23.000	5.7500e-03
12.000	23.250	5.7522e-03
12.000	23.500	5.7539e-03
12.000	23.750	5.7547e-03
12.000	24.000	5.7554e-03
12.250	17.000	3.8601e-05
12.250	17.250	4.2881e-05
12.250	17.500	5.0370e-05
12.250	17.750	6.3210e-05
12.250	18.000	8.4691e-05
12.250	18.250	1.1926e-04
12.250	18.500	1.7243e-04
12.250	18.750	2.5267e-04
12.250	19.000	3.6848e-04
12.250	19.250	5.3325e-04
12.250	19.500	7.6691e-04
12.250	19.750	1.1009e-03
12.250	20.000	1.5720e-03
12.250	20.250	2.2552e-03
12.250	20.500	3.2478e-03
12.250	20.750	4.6515e-03
12.250	21.000	5.2381e-03
12.250	21.250	5.3205e-03
12.250	21.500	5.4598e-03
12.250	21.750	5.6838e-03
12.250	22.000	5.7287e-03
12.250	22.250	5.7344e-03
12.250	22.500	5.7390e-03
12.250	22.750	5.7432e-03
12.250	23.000	5.7468e-03
12.250	23.250	5.7495e-03
12.250	23.500	5.7519e-03
12.250	23.750	5.7538e-03
12.250	24.000	5.7547e-03
12.500	17.000	3.6049e-05
12.500	17.250	3.8930e-05
12.500	17.500	4.3868e-05
12.500	17.750	5.2510e-05
12.500	18.000	6.7243e-05
12.500	18.250	9.1358e-05
12.500	18.500	1.2938e-04
12.500	18.750	1.8650e-04
12.500	19.000	2.6947e-04
12.500	19.250	3.8848e-04
12.500	19.500	5.5490e-04
12.500	19.750	7.9259e-04
12.500	20.000	1.1312e-03
12.500	20.250	1.6135e-03
12.500	20.500	2.3206e-03
12.500	20.750	3.3425e-03
12.500	21.000	4.7738e-03
12.500	21.250	5.2413e-03
12.500	21.500	5.3488e-03
12.500	21.750	5.5180e-03
12.500	22.000	5.7180e-03
12.500	22.250	5.7267e-03
12.500	22.500	5.7326e-03
12.500	22.750	5.7376e-03
12.500	23.000	5.7421e-03
12.500	23.250	5.7459e-03
12.500	23.500	5.7489e-03
12.500	23.750	5.7516e-03
12.500	24.000	5.7537e-03
12.750	17.000	2.6667e-05
12.750	17.250	3.5638e-05
12.750	17.500	3.9342e-05
12.750	17.750	4.5267e-05
12.750	18.000	5.5391e-05
12.750	18.250	7.2346e-05
12.750	18.500	9.9095e-05
12.750	18.750	1.3984e-04
12.750	19.000	1.9942e-04
12.750	19.250	2.8444e-04
12.750	19.500	4.0395e-04
12.750	19.750	5.7276e-04
12.750	20.000	8.1383e-04
12.750	20.250	1.1570e-03
12.750	20.500	1.6557e-03
12.750	20.750	2.3800e-03
12.750	21.000	3.4530e-03
12.750	21.250	4.9492e-03
12.750	21.500	5.2478e-03
12.750	21.750	5.3877e-03
12.750	22.000	5.5785e-03
12.750	22.250	5.7152e-03
12.750	22.500	5.7235e-03
12.750	22.750	5.7300e-03
12.750	23.000	5.7356e-03
12.750	23.250	5.7404e-03
12.750	23.500	5.7446e-03
12.750	23.750	5.7479e-03
12.750	24.000	5.7510e-03
13.000	17.000	1.3333e-05
13.000	17.250	2.4856e-05
13.000	17.500	3.4321e-05
13.000	17.750	4.0412e-05
13.000	18.000	4.7407e-05
13.000	18.250	5.9095e-05
13.000	18.500	7.7860e-05
13.000	18.750	1.0667e-04
13.000	19.000	1.4914e-04
13.000	19.250	2.0988e-04
13.000	19.500	2.9556e-04
13.000	19.750	4.1613e-04
13.000	20.000	5.8675e-04
13.000	20.250	8.3144e-04
13.000	20.500	1.1830e-03
13.000	20.750	1.6968e-03
13.000	21.000	2.4514e-03
13.000	21.250	3.5761e-03
13.000	21.500	5.0516e-03
13.000	21.750	5.2619e-03
13.000	22.000	5.4183e-03
13.000	22.250	5.6199e-03
13.000	22.500	5.7095e-03
13.000	22.750	5.7185e-03
13.000	23.000	5.7260e-03
13.000	23.250	5.7324e-03
13.000	23.500	5.7379e-03
13.000	23.750	5.7426e-03
13.000	24.000	5.7463e-03
13.250	17.000	8.0658e-06
13.250	17.250	1.5391e-05
13.250	17.500	2.9959e-05
13.250	17.750	3.7202e-05
13.250	18.000	4.1975e-05
13.250	18.250	5.0041e-05
13.250	18.500	6.3128e-05
13.250	18.750	8.3292e-05
13.250	19.000	1.1333e-04
13.250	19.250	1.5654e-04
13.250	19.500	2.1794e-04
13.250	19.750	3.0444e-04
13.250	20.000	4.2634e-04
13.250	20.250	6.0000e-04
13.250	20.500	8.5095e-04
13.250	20.750	1.2120e-03
13.250	21.000	1.7486e-03
13.250	21.250	2.5375e-03
13.250	21.500	3.6505e-03
13.250	21.750	5.0547e-03
13.250	22.000	5.2514e-03
13.250	22.250	5.4333e-03
13.250	22.500	5.6240e-03
13.250	22.750	5.7002e-03
13.250	23.000	5.7109e-03
13.250	23.250	5.7196e-03
13.250	23.500	5.7276e-03
13.250	23.750	5.7342e-03
13.250	24.000	5.7394e-03
13.500	17.000	4.7737e-06
13.500	17.250	9.4650e-06
13.500	17.500	1.9753e-05
13.500	17.750	3.1358e-05
13.500	18.000	3.8107e-05
13.500	18.250	4.3704e-05
13.500	18.500	5.2757e-05
13.500	18.750	6.6749e-05
13.500	19.000	8.7901e-05
13.500	19.250	1.1852e-04
13.500	19.500	1.6255e-04
13.500	19.750	2.2453e-04
13.500	20.000	3.1169e-04
13.500	20.250	4.3556e-04
13.500	20.500	6.1374e-04
13.500	20.750	8.7037e-04
13.500	21.000	1.2415e-03
13.500	21.250	1.7996e-03
13.500	21.500	2.5786e-03
13.500	21.750	3.7324e-03
13.500	22.000	5.0220e-03
13.500	22.250	5.2198e-03
13.500	22.500	5.4048e-03
13.500	22.750	5.5987e-03
13.500	23.000	5.6856e-03
13.500	23.250	5.6989e-03
13.500	23.500	5.7105e-03
13.500	23.750	5.7204e-03
13.500	24.000	5.7283e-03
13.750	17.000	2.8807e-06
13.750	17.250	5.6790e-06
13.750	17.500	1.2593e-05
13.750	17.750	2.2551e-05
13.750	18.000	3.4897e-05
13.750	18.250	3.9177e-05
13.750	18.500	4.5350e-05
13.750	18.750	5.5062e-05
13.750	19.000	6.9794e-05
13.750	19.250	9.1523e-05
13.750	19.500	1.2272e-04
13.750	19.750	1.6708e-04
13.750	20.000	2.2979e-04
13.750	20.250	3.1868e-04
13.750	20.500	4.4576e-04
13.750	20.750	6.2930e-04
13.750	21.000	8.9490e-04
13.750	21.250	1.2819e-03
13.750	21.500	1.8332e-03
13.750	21.750	2.6678e-03
13.750	22.000	3.8337e-03
13.750	22.250	4.9756e-03
13.750	22.500	5.1601e-03
13.750	22.750	5.3664e-03
13.750	23.000	5.5697e-03
13.750	23.250	5.6629e-03
13.750	23.500	5.6803e-03
13.750	23.750	5.6962e-03
13.750	24.000	5.7093e-03
14.000	17.000	1.7284e-06
14.000	17.250	3.4568e-06
14.000	17.500	7.6543e-06
14.000	17.750	1.5309e-05
14.000	18.000	2.6502e-05
14.000	18.250	3.6132e-05
14.000	18.500	4.0247e-05
14.000	18.750	4.6831e-05
14.000	19.000	5.6955e-05
14.000	19.250	7.2099e-05
14.000	19.500	9.4156e-05
14.000	19.750	1.2593e-04
14.000	20.000	1.7078e-04
14.000	20.250	2.3449e-04
14.000	20.500	3.2593e-04
14.000	20.750	4.5770e-04
14.000	21.000	6.4757e-04
14.000	21.250	9.2782e-04
14.000	21.500	1.3189e-03
14.000	21.750	1.9169e-03
14.000	22.000	2.8000e-03
14.000	22.250	3.9803e-03
14.000	22.500	4.9074e-03
14.000	22.750	5.0933e-03
14.000	23.000	5.3135e-03
14.000	23.250	5.5402e-03
14.000	23.500	5.6289e-03
14.000	23.750	5.6523e-03
14.000	24.000	5.6747e-03
