InwC 4400.00A  relative to Inci 1215.00A scaled to 1215A.
Hden   Phi(H)  Eq_Width (A)
 7.000	17.000	4.9579e-03
 7.000	17.250	4.9600e-03
 7.000	17.500	4.9621e-03
 7.000	17.750	4.9642e-03
 7.000	18.000	4.9663e-03
 7.000	18.250	4.9681e-03
 7.000	18.500	4.9693e-03
 7.000	18.750	4.9700e-03
 7.000	19.000	4.9705e-03
 7.000	19.250	4.9709e-03
 7.000	19.500	4.9711e-03
 7.000	19.750	4.9712e-03
 7.000	20.000	4.9713e-03
 7.000	20.250	4.9713e-03
 7.000	20.500	4.9713e-03
 7.000	20.750	4.9713e-03
 7.000	21.000	4.9714e-03
 7.000	21.250	4.9714e-03
 7.000	21.500	4.9714e-03
 7.000	21.750	4.9714e-03
 7.000	22.000	4.9713e-03
 7.000	22.250	4.9713e-03
 7.000	22.500	4.9713e-03
 7.000	22.750	4.9714e-03
 7.000	23.000	4.9714e-03
 7.000	23.250	4.9713e-03
 7.000	23.500	4.9713e-03
 7.000	23.750	4.9713e-03
 7.000	24.000	4.9714e-03
 7.250	17.000	4.9496e-03
 7.250	17.250	4.9579e-03
 7.250	17.500	4.9600e-03
 7.250	17.750	4.9621e-03
 7.250	18.000	4.9642e-03
 7.250	18.250	4.9663e-03
 7.250	18.500	4.9681e-03
 7.250	18.750	4.9693e-03
 7.250	19.000	4.9700e-03
 7.250	19.250	4.9705e-03
 7.250	19.500	4.9709e-03
 7.250	19.750	4.9711e-03
 7.250	20.000	4.9712e-03
 7.250	20.250	4.9713e-03
 7.250	20.500	4.9713e-03
 7.250	20.750	4.9713e-03
 7.250	21.000	4.9713e-03
 7.250	21.250	4.9714e-03
 7.250	21.500	4.9713e-03
 7.250	21.750	4.9723e-03
 7.250	22.000	4.9713e-03
 7.250	22.250	4.9714e-03
 7.250	22.500	4.9713e-03
 7.250	22.750	4.9719e-03
 7.250	23.000	4.9719e-03
 7.250	23.250	4.9714e-03
 7.250	23.500	4.9714e-03
 7.250	23.750	4.9713e-03
 7.250	24.000	4.9714e-03
 7.500	17.000	4.7560e-03
 7.500	17.250	4.9500e-03
 7.500	17.500	4.9579e-03
 7.500	17.750	4.9600e-03
 7.500	18.000	4.9621e-03
 7.500	18.250	4.9642e-03
 7.500	18.500	4.9663e-03
 7.500	18.750	4.9681e-03
 7.500	19.000	4.9693e-03
 7.500	19.250	4.9700e-03
 7.500	19.500	4.9705e-03
 7.500	19.750	4.9709e-03
 7.500	20.000	4.9711e-03
 7.500	20.250	4.9712e-03
 7.500	20.500	4.9713e-03
 7.500	20.750	4.9713e-03
 7.500	21.000	4.9713e-03
 7.500	21.250	4.9713e-03
 7.500	21.500	4.9713e-03
 7.500	21.750	4.9713e-03
 7.500	22.000	4.9713e-03
 7.500	22.250	4.9714e-03
 7.500	22.500	4.9713e-03
 7.500	22.750	4.9714e-03
 7.500	23.000	4.9716e-03
 7.500	23.250	4.9719e-03
 7.500	23.500	4.9714e-03
 7.500	23.750	4.9719e-03
 7.500	24.000	4.9713e-03
 7.750	17.000	4.3965e-03
 7.750	17.250	4.7569e-03
 7.750	17.500	4.9504e-03
 7.750	17.750	4.9579e-03
 7.750	18.000	4.9600e-03
 7.750	18.250	4.9621e-03
 7.750	18.500	4.9643e-03
 7.750	18.750	4.9663e-03
 7.750	19.000	4.9681e-03
 7.750	19.250	4.9693e-03
 7.750	19.500	4.9700e-03
 7.750	19.750	4.9705e-03
 7.750	20.000	4.9710e-03
 7.750	20.250	4.9711e-03
 7.750	20.500	4.9712e-03
 7.750	20.750	4.9713e-03
 7.750	21.000	4.9713e-03
 7.750	21.250	4.9713e-03
 7.750	21.500	4.9713e-03
 7.750	21.750	4.9713e-03
 7.750	22.000	4.9713e-03
 7.750	22.250	4.9713e-03
 7.750	22.500	4.9713e-03
 7.750	22.750	4.9714e-03
 7.750	23.000	4.9714e-03
 7.750	23.250	4.9714e-03
 7.750	23.500	4.9719e-03
 7.750	23.750	4.9719e-03
 7.750	24.000	4.9713e-03
 8.000	17.000	3.1118e-03
 8.000	17.250	4.3698e-03
 8.000	17.500	4.7552e-03
 8.000	17.750	4.9496e-03
 8.000	18.000	4.9579e-03
 8.000	18.250	4.9600e-03
 8.000	18.500	4.9621e-03
 8.000	18.750	4.9643e-03
 8.000	19.000	4.9663e-03
 8.000	19.250	4.9681e-03
 8.000	19.500	4.9693e-03
 8.000	19.750	4.9700e-03
 8.000	20.000	4.9705e-03
 8.000	20.250	4.9709e-03
 8.000	20.500	4.9711e-03
 8.000	20.750	4.9712e-03
 8.000	21.000	4.9713e-03
 8.000	21.250	4.9713e-03
 8.000	21.500	4.9713e-03
 8.000	21.750	4.9713e-03
 8.000	22.000	4.9713e-03
 8.000	22.250	4.9713e-03
 8.000	22.500	4.9713e-03
 8.000	22.750	4.9714e-03
 8.000	23.000	4.9713e-03
 8.000	23.250	4.9716e-03
 8.000	23.500	4.9713e-03
 8.000	23.750	4.9713e-03
 8.000	24.000	4.9713e-03
 8.250	17.000	2.1829e-03
 8.250	17.250	3.1240e-03
 8.250	17.500	4.3744e-03
 8.250	17.750	4.7559e-03
 8.250	18.000	4.9499e-03
 8.250	18.250	4.9579e-03
 8.250	18.500	4.9601e-03
 8.250	18.750	4.9621e-03
 8.250	19.000	4.9643e-03
 8.250	19.250	4.9663e-03
 8.250	19.500	4.9681e-03
 8.250	19.750	4.9693e-03
 8.250	20.000	4.9700e-03
 8.250	20.250	4.9705e-03
 8.250	20.500	4.9709e-03
 8.250	20.750	4.9711e-03
 8.250	21.000	4.9712e-03
 8.250	21.250	4.9713e-03
 8.250	21.500	4.9713e-03
 8.250	21.750	4.9713e-03
 8.250	22.000	4.9713e-03
 8.250	22.250	4.9713e-03
 8.250	22.500	4.9713e-03
 8.250	22.750	4.9714e-03
 8.250	23.000	4.9713e-03
 8.250	23.250	4.9726e-03
 8.250	23.500	4.9713e-03
 8.250	23.750	4.9713e-03
 8.250	24.000	4.9716e-03
 8.500	17.000	1.5281e-03
 8.500	17.250	2.1990e-03
 8.500	17.500	3.1376e-03
 8.500	17.750	4.3805e-03
 8.500	18.000	4.7564e-03
 8.500	18.250	4.9500e-03
 8.500	18.500	4.9579e-03
 8.500	18.750	4.9601e-03
 8.500	19.000	4.9622e-03
 8.500	19.250	4.9643e-03
 8.500	19.500	4.9663e-03
 8.500	19.750	4.9681e-03
 8.500	20.000	4.9693e-03
 8.500	20.250	4.9700e-03
 8.500	20.500	4.9705e-03
 8.500	20.750	4.9709e-03
 8.500	21.000	4.9711e-03
 8.500	21.250	4.9712e-03
 8.500	21.500	4.9712e-03
 8.500	21.750	4.9713e-03
 8.500	22.000	4.9713e-03
 8.500	22.250	4.9713e-03
 8.500	22.500	4.9713e-03
 8.500	22.750	4.9713e-03
 8.500	23.000	4.9713e-03
 8.500	23.250	4.9714e-03
 8.500	23.500	4.9713e-03
 8.500	23.750	4.9713e-03
 8.500	24.000	4.9713e-03
 8.750	17.000	1.0715e-03
 8.750	17.250	1.5460e-03
 8.750	17.500	2.2219e-03
 8.750	17.750	3.1469e-03
 8.750	18.000	4.3913e-03
 8.750	18.250	4.7567e-03
 8.750	18.500	4.9501e-03
 8.750	18.750	4.9579e-03
 8.750	19.000	4.9601e-03
 8.750	19.250	4.9622e-03
 8.750	19.500	4.9644e-03
 8.750	19.750	4.9664e-03
 8.750	20.000	4.9681e-03
 8.750	20.250	4.9693e-03
 8.750	20.500	4.9700e-03
 8.750	20.750	4.9705e-03
 8.750	21.000	4.9709e-03
 8.750	21.250	4.9711e-03
 8.750	21.500	4.9712e-03
 8.750	21.750	4.9713e-03
 8.750	22.000	4.9713e-03
 8.750	22.250	4.9713e-03
 8.750	22.500	4.9713e-03
 8.750	22.750	4.9713e-03
 8.750	23.000	4.9718e-03
 8.750	23.250	4.9713e-03
 8.750	23.500	4.9714e-03
 8.750	23.750	4.9713e-03
 8.750	24.000	4.9713e-03
 9.000	17.000	7.5243e-04
 9.000	17.250	1.0871e-03
 9.000	17.500	1.5723e-03
 9.000	17.750	2.2621e-03
 9.000	18.000	3.1922e-03
 9.000	18.250	4.4273e-03
 9.000	18.500	4.7566e-03
 9.000	18.750	4.9501e-03
 9.000	19.000	4.9579e-03
 9.000	19.250	4.9601e-03
 9.000	19.500	4.9622e-03
 9.000	19.750	4.9644e-03
 9.000	20.000	4.9664e-03
 9.000	20.250	4.9681e-03
 9.000	20.500	4.9693e-03
 9.000	20.750	4.9700e-03
 9.000	21.000	4.9705e-03
 9.000	21.250	4.9709e-03
 9.000	21.500	4.9711e-03
 9.000	21.750	4.9712e-03
 9.000	22.000	4.9712e-03
 9.000	22.250	4.9712e-03
 9.000	22.500	4.9713e-03
 9.000	22.750	4.9713e-03
 9.000	23.000	4.9713e-03
 9.000	23.250	4.9713e-03
 9.000	23.500	4.9713e-03
 9.000	23.750	4.9713e-03
 9.000	24.000	4.9713e-03
 9.250	17.000	5.2996e-04
 9.250	17.250	7.6560e-04
 9.250	17.500	1.1136e-03
 9.250	17.750	1.6230e-03
 9.250	18.000	2.3355e-03
 9.250	18.250	3.2872e-03
 9.250	18.500	4.5119e-03
 9.250	18.750	4.7561e-03
 9.250	19.000	4.9498e-03
 9.250	19.250	4.9579e-03
 9.250	19.500	4.9601e-03
 9.250	19.750	4.9622e-03
 9.250	20.000	4.9644e-03
 9.250	20.250	4.9664e-03
 9.250	20.500	4.9681e-03
 9.250	20.750	4.9693e-03
 9.250	21.000	4.9700e-03
 9.250	21.250	4.9705e-03
 9.250	21.500	4.9707e-03
 9.250	21.750	4.9708e-03
 9.250	22.000	4.9708e-03
 9.250	22.250	4.9709e-03
 9.250	22.500	4.9710e-03
 9.250	22.750	4.9710e-03
 9.250	23.000	4.9711e-03
 9.250	23.250	4.9712e-03
 9.250	23.500	4.9712e-03
 9.250	23.750	4.9711e-03
 9.250	24.000	4.9712e-03
 9.500	17.000	3.7597e-04
 9.500	17.250	5.4123e-04
 9.500	17.500	7.9037e-04
 9.500	17.750	1.1662e-03
 9.500	18.000	1.7143e-03
 9.500	18.250	2.4823e-03
 9.500	18.500	3.4924e-03
 9.500	18.750	4.6449e-03
 9.500	19.000	4.7549e-03
 9.500	19.250	4.9491e-03
 9.500	19.500	4.9578e-03
 9.500	19.750	4.9601e-03
 9.500	20.000	4.9622e-03
 9.500	20.250	4.9644e-03
 9.500	20.500	4.9664e-03
 9.500	20.750	4.9679e-03
 9.500	21.000	4.9691e-03
 9.500	21.250	4.9696e-03
 9.500	21.500	4.9702e-03
 9.500	21.750	4.9705e-03
 9.500	22.000	4.9706e-03
 9.500	22.250	4.9707e-03
 9.500	22.500	4.9707e-03
 9.500	22.750	4.9708e-03
 9.500	23.000	4.9708e-03
 9.500	23.250	4.9708e-03
 9.500	23.500	4.9708e-03
 9.500	23.750	4.9708e-03
 9.500	24.000	4.9708e-03
 9.750	17.000	2.6749e-04
 9.750	17.250	3.8436e-04
 9.750	17.500	5.6173e-04
 9.750	17.750	8.3860e-04
 9.750	18.000	1.2678e-03
 9.750	18.250	1.8882e-03
 9.750	18.500	2.7448e-03
 9.750	18.750	3.8687e-03
 9.750	19.000	4.6442e-03
 9.750	19.250	4.7527e-03
 9.750	19.500	4.9474e-03
 9.750	19.750	4.9577e-03
 9.750	20.000	4.9600e-03
 9.750	20.250	4.9622e-03
 9.750	20.500	4.9644e-03
 9.750	20.750	4.9663e-03
 9.750	21.000	4.9679e-03
 9.750	21.250	4.9691e-03
 9.750	21.500	4.9697e-03
 9.750	21.750	4.9702e-03
 9.750	22.000	4.9705e-03
 9.750	22.250	4.9707e-03
 9.750	22.500	4.9707e-03
 9.750	22.750	4.9708e-03
 9.750	23.000	4.9708e-03
 9.750	23.250	4.9708e-03
 9.750	23.500	4.9708e-03
 9.750	23.750	4.9708e-03
 9.750	24.000	4.9708e-03
10.000	17.000	1.9144e-04
10.000	17.250	2.7383e-04
10.000	17.500	4.0074e-04
10.000	17.750	6.0494e-04
10.000	18.000	9.3819e-04
10.000	18.250	1.4393e-03
10.000	18.500	2.1431e-03
10.000	18.750	3.0700e-03
10.000	19.000	4.1776e-03
10.000	19.250	4.6417e-03
10.000	19.500	4.7491e-03
10.000	19.750	4.9444e-03
10.000	20.000	4.9575e-03
10.000	20.250	4.9600e-03
10.000	20.500	4.9623e-03
10.000	20.750	4.9644e-03
10.000	21.000	4.9664e-03
10.000	21.250	4.9681e-03
10.000	21.500	4.9691e-03
10.000	21.750	4.9697e-03
10.000	22.000	4.9703e-03
10.000	22.250	4.9705e-03
10.000	22.500	4.9706e-03
10.000	22.750	4.9707e-03
10.000	23.000	4.9708e-03
10.000	23.250	4.9708e-03
10.000	23.500	4.9708e-03
10.000	23.750	4.9708e-03
10.000	24.000	4.9708e-03
10.250	17.000	1.3819e-04
10.250	17.250	1.9646e-04
10.250	17.500	2.8782e-04
10.250	17.750	4.3975e-04
10.250	18.000	6.9490e-04
10.250	18.250	1.0844e-03
10.250	18.500	1.6492e-03
10.250	18.750	2.4219e-03
10.250	19.000	3.4449e-03
10.250	19.250	4.5667e-03
10.250	19.500	4.6384e-03
10.250	19.750	4.7438e-03
10.250	20.000	4.9403e-03
10.250	20.250	4.9573e-03
10.250	20.500	4.9599e-03
10.250	20.750	4.9622e-03
10.250	21.000	4.9644e-03
10.250	21.250	4.9664e-03
10.250	21.500	4.9681e-03
10.250	21.750	4.9691e-03
10.250	22.000	4.9697e-03
10.250	22.250	4.9703e-03
10.250	22.500	4.9706e-03
10.250	22.750	4.9706e-03
10.250	23.000	4.9707e-03
10.250	23.250	4.9708e-03
10.250	23.500	4.9708e-03
10.250	23.750	4.9708e-03
10.250	24.000	4.9708e-03
10.500	17.000	1.0074e-04
10.500	17.250	1.4239e-04
10.500	17.500	2.0864e-04
10.500	17.750	3.2255e-04
10.500	18.000	5.1663e-04
10.500	18.250	8.1802e-04
10.500	18.500	1.2484e-03
10.500	18.750	1.8679e-03
10.500	19.000	2.6975e-03
10.500	19.250	3.7909e-03
10.500	19.500	4.5781e-03
10.500	19.750	4.6351e-03
10.500	20.000	4.7394e-03
10.500	20.250	4.9344e-03
10.500	20.500	4.9568e-03
10.500	20.750	4.9598e-03
10.500	21.000	4.9622e-03
10.500	21.250	4.9644e-03
10.500	21.500	4.9665e-03
10.500	21.750	4.9681e-03
10.500	22.000	4.9693e-03
10.500	22.250	4.9697e-03
10.500	22.500	4.9703e-03
10.500	22.750	4.9707e-03
10.500	23.000	4.9707e-03
10.500	23.250	4.9707e-03
10.500	23.500	4.9708e-03
10.500	23.750	4.9708e-03
10.500	24.000	4.9708e-03
10.750	17.000	7.4321e-05
10.750	17.250	1.0420e-04
10.750	17.500	1.5300e-04
10.750	17.750	2.3860e-04
10.750	18.000	3.8444e-04
10.750	18.250	6.0996e-04
10.750	18.500	9.3926e-04
10.750	18.750	1.4051e-03
10.750	19.000	2.0519e-03
10.750	19.250	2.9379e-03
10.750	19.500	4.0616e-03
10.750	19.750	4.5756e-03
10.750	20.000	4.6320e-03
10.750	20.250	4.7358e-03
10.750	20.500	4.9298e-03
10.750	20.750	4.9556e-03
10.750	21.000	4.9594e-03
10.750	21.250	4.9621e-03
10.750	21.500	4.9644e-03
10.750	21.750	4.9664e-03
10.750	22.000	4.9681e-03
10.750	22.250	4.9693e-03
10.750	22.500	4.9699e-03
10.750	22.750	4.9703e-03
10.750	23.000	4.9707e-03
10.750	23.250	4.9708e-03
10.750	23.500	4.9708e-03
10.750	23.750	4.9708e-03
10.750	24.000	4.9708e-03
11.000	17.000	5.5638e-05
11.000	17.250	7.7037e-05
11.000	17.500	1.1300e-04
11.000	17.750	1.7712e-04
11.000	18.000	2.8494e-04
11.000	18.250	4.5078e-04
11.000	18.500	6.9350e-04
11.000	18.750	1.0408e-03
11.000	19.000	1.5328e-03
11.000	19.250	2.2210e-03
11.000	19.500	3.1606e-03
11.000	19.750	4.3834e-03
11.000	20.000	4.5732e-03
11.000	20.250	4.6309e-03
11.000	20.500	4.7356e-03
11.000	20.750	4.9276e-03
11.000	21.000	4.9547e-03
11.000	21.250	4.9587e-03
11.000	21.500	4.9620e-03
11.000	21.750	4.9644e-03
11.000	22.000	4.9664e-03
11.000	22.250	4.9681e-03
11.000	22.500	4.9693e-03
11.000	22.750	4.9700e-03
11.000	23.000	4.9705e-03
11.000	23.250	4.9707e-03
11.000	23.500	4.9708e-03
11.000	23.750	4.9709e-03
11.000	24.000	4.9708e-03
11.250	17.000	4.2469e-05
11.250	17.250	5.7778e-05
11.250	17.500	8.4033e-05
11.250	17.750	1.3136e-04
11.250	18.000	2.1021e-04
11.250	18.250	3.2947e-04
11.250	18.500	5.0527e-04
11.250	18.750	7.6543e-04
11.250	19.000	1.1280e-03
11.250	19.250	1.6405e-03
11.250	19.500	2.3622e-03
11.250	19.750	3.3676e-03
11.250	20.000	4.4706e-03
11.250	20.250	4.5716e-03
11.250	20.500	4.6303e-03
11.250	20.750	4.7393e-03
11.250	21.000	4.9335e-03
11.250	21.250	4.9535e-03
11.250	21.500	4.9581e-03
11.250	21.750	4.9617e-03
11.250	22.000	4.9643e-03
11.250	22.250	4.9663e-03
11.250	22.500	4.9681e-03
11.250	22.750	4.9693e-03
11.250	23.000	4.9700e-03
11.250	23.250	4.9705e-03
11.250	23.500	4.9707e-03
11.250	23.750	4.9709e-03
11.250	24.000	4.9709e-03
11.500	17.000	3.3333e-05
11.500	17.250	4.4198e-05
11.500	17.500	6.3210e-05
11.500	17.750	9.7449e-05
11.500	18.000	1.5374e-04
11.500	18.250	2.3934e-04
11.500	18.500	3.6626e-04
11.500	18.750	5.5407e-04
11.500	19.000	8.1942e-04
11.500	19.250	1.1962e-03
11.500	19.500	1.7322e-03
11.500	19.750	2.4941e-03
11.500	20.000	3.5609e-03
11.500	20.250	4.5099e-03
11.500	20.500	4.5709e-03
11.500	20.750	4.6333e-03
11.500	21.000	4.7518e-03
11.500	21.250	4.9428e-03
11.500	21.500	4.9530e-03
11.500	21.750	4.9573e-03
11.500	22.000	4.9612e-03
11.500	22.250	4.9640e-03
11.500	22.500	4.9662e-03
11.500	22.750	4.9679e-03
11.500	23.000	4.9693e-03
11.500	23.250	4.9699e-03
11.500	23.500	4.9705e-03
11.500	23.750	4.9708e-03
11.500	24.000	4.9709e-03
11.750	17.000	2.7078e-05
11.750	17.250	3.4733e-05
11.750	17.500	4.8313e-05
11.750	17.750	7.2510e-05
11.750	18.000	1.1169e-04
11.750	18.250	1.7243e-04
11.750	18.500	2.6337e-04
11.750	18.750	3.9605e-04
11.750	19.000	5.9128e-04
11.750	19.250	8.6502e-04
11.750	19.500	1.2559e-03
11.750	19.750	1.8102e-03
11.750	20.000	2.6109e-03
11.750	20.250	3.7324e-03
11.750	20.500	4.5280e-03
11.750	20.750	4.5714e-03
11.750	21.000	4.6423e-03
11.750	21.250	4.7826e-03
11.750	21.500	4.9453e-03
11.750	21.750	4.9520e-03
11.750	22.000	4.9566e-03
11.750	22.250	4.9606e-03
11.750	22.500	4.9636e-03
11.750	22.750	4.9659e-03
11.750	23.000	4.9678e-03
11.750	23.250	4.9692e-03
11.750	23.500	4.9699e-03
11.750	23.750	4.9705e-03
11.750	24.000	4.9709e-03
12.000	17.000	2.2716e-05
12.000	17.250	2.8066e-05
12.000	17.500	3.7613e-05
12.000	17.750	5.4156e-05
12.000	18.000	8.1152e-05
12.000	18.250	1.2379e-04
12.000	18.500	1.8856e-04
12.000	18.750	2.8461e-04
12.000	19.000	4.2420e-04
12.000	19.250	6.2255e-04
12.000	19.500	9.0444e-04
12.000	19.750	1.3054e-03
12.000	20.000	1.8826e-03
12.000	20.250	2.7113e-03
12.000	20.500	3.8795e-03
12.000	20.750	4.5238e-03
12.000	21.000	4.5763e-03
12.000	21.250	4.6685e-03
12.000	21.500	4.8379e-03
12.000	21.750	4.9446e-03
12.000	22.000	4.9509e-03
12.000	22.250	4.9557e-03
12.000	22.500	4.9598e-03
12.000	22.750	4.9631e-03
12.000	23.000	4.9655e-03
12.000	23.250	4.9676e-03
12.000	23.500	4.9691e-03
12.000	23.750	4.9699e-03
12.000	24.000	4.9705e-03
12.250	17.000	1.9588e-05
12.250	17.250	2.3374e-05
12.250	17.500	2.9794e-05
12.250	17.750	4.0988e-05
12.250	18.000	5.9506e-05
12.250	18.250	8.9383e-05
12.250	18.500	1.3539e-04
12.250	18.750	2.0469e-04
12.250	19.000	3.0486e-04
12.250	19.250	4.4749e-04
12.250	19.500	6.4979e-04
12.250	19.750	9.3926e-04
12.250	20.000	1.3478e-03
12.250	20.250	1.9403e-03
12.250	20.500	2.8011e-03
12.250	20.750	4.0171e-03
12.250	21.000	4.5206e-03
12.250	21.250	4.5894e-03
12.250	21.500	4.7092e-03
12.250	21.750	4.9027e-03
12.250	22.000	4.9430e-03
12.250	22.250	4.9492e-03
12.250	22.500	4.9542e-03
12.250	22.750	4.9587e-03
12.250	23.000	4.9623e-03
12.250	23.250	4.9649e-03
12.250	23.500	4.9672e-03
12.250	23.750	4.9691e-03
12.250	24.000	4.9698e-03
12.500	17.000	1.7366e-05
12.500	17.250	1.9918e-05
12.500	17.500	2.4198e-05
12.500	17.750	3.1687e-05
12.500	18.000	4.4444e-05
12.500	18.250	6.5350e-05
12.500	18.500	9.8189e-05
12.500	18.750	1.4749e-04
12.500	19.000	2.1926e-04
12.500	19.250	3.2214e-04
12.500	19.500	4.6609e-04
12.500	19.750	6.7193e-04
12.500	20.000	9.6527e-04
12.500	20.250	1.3834e-03
12.500	20.500	1.9962e-03
12.500	20.750	2.8816e-03
12.500	21.000	4.1202e-03
12.500	21.250	4.5205e-03
12.500	21.500	4.6127e-03
12.500	21.750	4.7575e-03
12.500	22.000	4.9310e-03
12.500	22.250	4.9402e-03
12.500	22.500	4.9468e-03
12.500	22.750	4.9524e-03
12.500	23.000	4.9573e-03
12.500	23.250	4.9612e-03
12.500	23.500	4.9641e-03
12.500	23.750	4.9667e-03
12.500	24.000	4.9689e-03
12.750	17.000	1.2428e-05
12.750	17.250	1.7119e-05
12.750	17.500	2.0247e-05
12.750	17.750	2.5350e-05
12.750	18.000	3.4239e-05
12.750	18.250	4.8889e-05
12.750	18.500	7.2016e-05
12.750	18.750	1.0716e-04
12.750	19.000	1.5868e-04
12.750	19.250	2.3210e-04
12.750	19.500	3.3539e-04
12.750	19.750	4.8140e-04
12.750	20.000	6.9012e-04
12.750	20.250	9.8724e-04
12.750	20.500	1.4189e-03
12.750	20.750	2.0456e-03
12.750	21.000	2.9733e-03
12.750	21.250	4.2653e-03
12.750	21.500	4.5231e-03
12.750	21.750	4.6429e-03
12.750	22.000	4.8072e-03
12.750	22.250	4.9270e-03
12.750	22.500	4.9361e-03
12.750	22.750	4.9435e-03
12.750	23.000	4.9497e-03
12.750	23.250	4.9551e-03
12.750	23.500	4.9596e-03
12.750	23.750	4.9628e-03
12.750	24.000	4.9660e-03
13.000	17.000	6.2551e-06
13.000	17.250	1.1687e-05
13.000	17.500	1.6708e-05
13.000	17.750	2.1235e-05
13.000	18.000	2.7325e-05
13.000	18.250	3.7449e-05
13.000	18.500	5.3663e-05
13.000	18.750	7.8519e-05
13.000	19.000	1.1523e-04
13.000	19.250	1.6765e-04
13.000	19.500	2.4165e-04
13.000	19.750	3.4584e-04
13.000	20.000	4.9333e-04
13.000	20.250	7.0486e-04
13.000	20.500	1.0086e-03
13.000	20.750	1.4523e-03
13.000	21.000	2.1034e-03
13.000	21.250	3.0722e-03
13.000	21.500	4.3445e-03
13.000	21.750	4.5275e-03
13.000	22.000	4.6644e-03
13.000	22.250	4.8393e-03
13.000	22.500	4.9196e-03
13.000	22.750	4.9298e-03
13.000	23.000	4.9384e-03
13.000	23.250	4.9458e-03
13.000	23.500	4.9520e-03
13.000	23.750	4.9570e-03
13.000	24.000	4.9608e-03
13.250	17.000	3.7037e-06
13.250	17.250	7.1605e-06
13.250	17.500	1.3992e-05
13.250	17.750	1.8354e-05
13.250	18.000	2.2551e-05
13.250	18.250	2.9547e-05
13.250	18.500	4.0905e-05
13.250	18.750	5.8354e-05
13.250	19.000	8.4280e-05
13.250	19.250	1.2156e-04
13.250	19.500	1.7457e-04
13.250	19.750	2.4922e-04
13.250	20.000	3.5449e-04
13.250	20.250	5.0436e-04
13.250	20.500	7.2091e-04
13.250	20.750	1.0321e-03
13.250	21.000	1.4936e-03
13.250	21.250	2.1707e-03
13.250	21.500	3.1269e-03
13.250	21.750	4.3312e-03
13.250	22.000	4.5081e-03
13.250	22.250	4.6705e-03
13.250	22.500	4.8380e-03
13.250	22.750	4.9078e-03
13.250	23.000	4.9202e-03
13.250	23.250	4.9304e-03
13.250	23.500	4.9397e-03
13.250	23.750	4.9472e-03
13.250	24.000	4.9530e-03
13.500	17.000	2.2222e-06
13.500	17.250	4.3621e-06
13.500	17.500	9.0535e-06
13.500	17.750	1.4815e-05
13.500	18.000	1.9177e-05
13.500	18.250	2.4115e-05
13.500	18.500	3.1934e-05
13.500	18.750	4.4115e-05
13.500	19.000	6.2305e-05
13.500	19.250	8.8724e-05
13.500	19.500	1.2675e-04
13.500	19.750	1.8025e-04
13.500	20.000	2.5539e-04
13.500	20.250	3.6222e-04
13.500	20.500	5.1564e-04
13.500	20.750	7.3638e-04
13.500	21.000	1.0547e-03
13.500	21.250	1.5318e-03
13.500	21.500	2.1978e-03
13.500	21.750	3.1807e-03
13.500	22.000	4.2820e-03
13.500	22.250	4.4665e-03
13.500	22.500	4.6371e-03
13.500	22.750	4.8095e-03
13.500	23.000	4.8894e-03
13.500	23.250	4.9052e-03
13.500	23.500	4.9189e-03
13.500	23.750	4.9308e-03
13.500	24.000	4.9398e-03
13.750	17.000	1.3169e-06
13.750	17.250	2.6337e-06
13.750	17.500	5.7613e-06
13.750	17.750	1.0370e-05
13.750	18.000	1.6543e-05
13.750	18.250	2.0165e-05
13.750	18.500	2.5514e-05
13.750	18.750	3.3909e-05
13.750	19.000	4.6749e-05
13.750	19.250	6.5432e-05
13.750	19.500	9.2428e-05
13.750	19.750	1.3062e-04
13.750	20.000	1.8469e-04
13.750	20.250	2.6123e-04
13.750	20.500	3.7053e-04
13.750	20.750	5.2815e-04
13.750	21.000	7.5539e-04
13.750	21.250	1.0851e-03
13.750	21.500	1.5541e-03
13.750	21.750	2.2594e-03
13.750	22.000	3.2432e-03
13.750	22.250	4.2158e-03
13.750	22.500	4.3979e-03
13.750	22.750	4.5915e-03
13.750	23.000	4.7746e-03
13.750	23.250	4.8614e-03
13.750	23.500	4.8821e-03
13.750	23.750	4.9012e-03
13.750	24.000	4.9169e-03
14.000	17.000	1.0000e-07
14.000	17.250	1.5638e-06
14.000	17.500	3.4568e-06
14.000	17.750	6.9136e-06
14.000	18.000	1.2263e-05
14.000	18.250	1.7449e-05
14.000	18.500	2.1070e-05
14.000	18.750	2.6831e-05
14.000	19.000	3.5638e-05
14.000	19.250	4.8724e-05
14.000	19.500	6.7737e-05
14.000	19.750	9.5144e-05
14.000	20.000	1.3383e-04
14.000	20.250	1.8864e-04
14.000	20.500	2.6724e-04
14.000	20.750	3.8016e-04
14.000	21.000	5.4230e-04
14.000	21.250	7.8033e-04
14.000	21.500	1.1116e-03
14.000	21.750	1.6130e-03
14.000	22.000	2.3480e-03
14.000	22.250	3.3320e-03
14.000	22.500	4.1258e-03
14.000	22.750	4.3165e-03
14.000	23.000	4.5281e-03
14.000	23.250	4.7343e-03
14.000	23.500	4.8194e-03
14.000	23.750	4.8477e-03
14.000	24.000	4.8748e-03
