InwT 913.000A  relative to Inci 1215.00A scaled to 1215A.
Hden   Phi(H)  Eq_Width (A)
 7.000	17.000	1.2703e-02
 7.000	17.250	1.1985e-02
 7.000	17.500	1.1171e-02
 7.000	17.750	1.0149e-02
 7.000	18.000	9.2711e-03
 7.000	18.250	8.7200e-03
 7.000	18.500	8.3544e-03
 7.000	18.750	8.1616e-03
 7.000	19.000	8.0586e-03
 7.000	19.250	8.0002e-03
 7.000	19.500	7.9749e-03
 7.000	19.750	7.9642e-03
 7.000	20.000	7.9595e-03
 7.000	20.250	7.9573e-03
 7.000	20.500	7.9562e-03
 7.000	20.750	7.9556e-03
 7.000	21.000	7.9552e-03
 7.000	21.250	7.9551e-03
 7.000	21.500	7.9551e-03
 7.000	21.750	7.9549e-03
 7.000	22.000	7.9549e-03
 7.000	22.250	7.9549e-03
 7.000	22.500	7.9549e-03
 7.000	22.750	7.9551e-03
 7.000	23.000	7.9551e-03
 7.000	23.250	7.9549e-03
 7.000	23.500	7.9549e-03
 7.000	23.750	7.9549e-03
 7.000	24.000	7.9549e-03
 7.250	17.000	1.3156e-02
 7.250	17.250	1.2522e-02
 7.250	17.500	1.1898e-02
 7.250	17.750	1.1132e-02
 7.250	18.000	1.0127e-02
 7.250	18.250	9.2589e-03
 7.250	18.500	8.7141e-03
 7.250	18.750	8.3523e-03
 7.250	19.000	8.1609e-03
 7.250	19.250	8.0584e-03
 7.250	19.500	8.0001e-03
 7.250	19.750	7.9749e-03
 7.250	20.000	7.9642e-03
 7.250	20.250	7.9594e-03
 7.250	20.500	7.9573e-03
 7.250	20.750	7.9561e-03
 7.250	21.000	7.9556e-03
 7.250	21.250	7.9552e-03
 7.250	21.500	7.9551e-03
 7.250	21.750	7.9565e-03
 7.250	22.000	7.9549e-03
 7.250	22.250	7.9549e-03
 7.250	22.500	7.9549e-03
 7.250	22.750	7.9556e-03
 7.250	23.000	7.9556e-03
 7.250	23.250	7.9549e-03
 7.250	23.500	7.9549e-03
 7.250	23.750	7.9549e-03
 7.250	24.000	7.9549e-03
 7.500	17.000	1.4918e-02
 7.500	17.250	1.2949e-02
 7.500	17.500	1.2415e-02
 7.500	17.750	1.1849e-02
 7.500	18.000	1.1113e-02
 7.500	18.250	1.0115e-02
 7.500	18.500	9.2516e-03
 7.500	18.750	8.7103e-03
 7.500	19.000	8.3509e-03
 7.500	19.250	8.1604e-03
 7.500	19.500	8.0582e-03
 7.500	19.750	8.0001e-03
 7.500	20.000	7.9749e-03
 7.500	20.250	7.9642e-03
 7.500	20.500	7.9594e-03
 7.500	20.750	7.9572e-03
 7.500	21.000	7.9561e-03
 7.500	21.250	7.9556e-03
 7.500	21.500	7.9552e-03
 7.500	21.750	7.9551e-03
 7.500	22.000	7.9550e-03
 7.500	22.250	7.9549e-03
 7.500	22.500	7.9549e-03
 7.500	22.750	7.9549e-03
 7.500	23.000	7.9553e-03
 7.500	23.250	7.9556e-03
 7.500	23.500	7.9549e-03
 7.500	23.750	7.9558e-03
 7.500	24.000	7.9549e-03
 7.750	17.000	1.6903e-02
 7.750	17.250	1.3810e-02
 7.750	17.500	1.2829e-02
 7.750	17.750	1.2353e-02
 7.750	18.000	1.1825e-02
 7.750	18.250	1.1108e-02
 7.750	18.500	1.0110e-02
 7.750	18.750	9.2474e-03
 7.750	19.000	8.7080e-03
 7.750	19.250	8.3501e-03
 7.750	19.500	8.1601e-03
 7.750	19.750	8.0581e-03
 7.750	20.000	8.0001e-03
 7.750	20.250	7.9749e-03
 7.750	20.500	7.9642e-03
 7.750	20.750	7.9594e-03
 7.750	21.000	7.9572e-03
 7.750	21.250	7.9561e-03
 7.750	21.500	7.9556e-03
 7.750	21.750	7.9552e-03
 7.750	22.000	7.9551e-03
 7.750	22.250	7.9550e-03
 7.750	22.500	7.9549e-03
 7.750	22.750	7.9551e-03
 7.750	23.000	7.9551e-03
 7.750	23.250	7.9549e-03
 7.750	23.500	7.9556e-03
 7.750	23.750	7.9556e-03
 7.750	24.000	7.9549e-03
 8.000	17.000	1.3788e-02
 8.000	17.250	1.4570e-02
 8.000	17.500	1.2992e-02
 8.000	17.750	1.2759e-02
 8.000	18.000	1.2316e-02
 8.000	18.250	1.1814e-02
 8.000	18.500	1.1112e-02
 8.000	18.750	1.0109e-02
 8.000	19.000	9.2453e-03
 8.000	19.250	8.7067e-03
 8.000	19.500	8.3496e-03
 8.000	19.750	8.1598e-03
 8.000	20.000	8.0580e-03
 8.000	20.250	8.0000e-03
 8.000	20.500	7.9749e-03
 8.000	20.750	7.9642e-03
 8.000	21.000	7.9594e-03
 8.000	21.250	7.9572e-03
 8.000	21.500	7.9561e-03
 8.000	21.750	7.9555e-03
 8.000	22.000	7.9552e-03
 8.000	22.250	7.9550e-03
 8.000	22.500	7.9549e-03
 8.000	22.750	7.9551e-03
 8.000	23.000	7.9548e-03
 8.000	23.250	7.9553e-03
 8.000	23.500	7.9548e-03
 8.000	23.750	7.9548e-03
 8.000	24.000	7.9548e-03
 8.250	17.000	1.0768e-02
 8.250	17.250	1.1826e-02
 8.250	17.500	1.2999e-02
 8.250	17.750	1.2340e-02
 8.250	18.000	1.2714e-02
 8.250	18.250	1.2291e-02
 8.250	18.500	1.1812e-02
 8.250	18.750	1.1122e-02
 8.250	19.000	1.0111e-02
 8.250	19.250	9.2444e-03
 8.250	19.500	8.7059e-03
 8.250	19.750	8.3493e-03
 8.250	20.000	8.1598e-03
 8.250	20.250	8.0579e-03
 8.250	20.500	8.0000e-03
 8.250	20.750	7.9749e-03
 8.250	21.000	7.9642e-03
 8.250	21.250	7.9594e-03
 8.250	21.500	7.9572e-03
 8.250	21.750	7.9560e-03
 8.250	22.000	7.9555e-03
 8.250	22.250	7.9551e-03
 8.250	22.500	7.9550e-03
 8.250	22.750	7.9551e-03
 8.250	23.000	7.9548e-03
 8.250	23.250	7.9569e-03
 8.250	23.500	7.9548e-03
 8.250	23.750	7.9548e-03
 8.250	24.000	7.9554e-03
 8.500	17.000	8.4739e-03
 8.500	17.250	9.1982e-03
 8.500	17.500	1.0531e-02
 8.500	17.750	1.1977e-02
 8.500	18.000	1.1952e-02
 8.500	18.250	1.2679e-02
 8.500	18.500	1.2273e-02
 8.500	18.750	1.1815e-02
 8.500	19.000	1.1136e-02
 8.500	19.250	1.0114e-02
 8.500	19.500	9.2444e-03
 8.500	19.750	8.7054e-03
 8.500	20.000	8.3491e-03
 8.500	20.250	8.1597e-03
 8.500	20.500	8.0579e-03
 8.500	20.750	8.0000e-03
 8.500	21.000	7.9749e-03
 8.500	21.250	7.9642e-03
 8.500	21.500	7.9594e-03
 8.500	21.750	7.9572e-03
 8.500	22.000	7.9560e-03
 8.500	22.250	7.9555e-03
 8.500	22.500	7.9551e-03
 8.500	22.750	7.9550e-03
 8.500	23.000	7.9549e-03
 8.500	23.250	7.9551e-03
 8.500	23.500	7.9548e-03
 8.500	23.750	7.9548e-03
 8.500	24.000	7.9548e-03
 8.750	17.000	6.9033e-03
 8.750	17.250	7.3112e-03
 8.750	17.500	8.2265e-03
 8.750	17.750	9.7422e-03
 8.750	18.000	1.1346e-02
 8.750	18.250	1.1725e-02
 8.750	18.500	1.2649e-02
 8.750	18.750	1.2257e-02
 8.750	19.000	1.1821e-02
 8.750	19.250	1.1153e-02
 8.750	19.500	1.0119e-02
 8.750	19.750	9.2446e-03
 8.750	20.000	8.7052e-03
 8.750	20.250	8.3489e-03
 8.750	20.500	8.1597e-03
 8.750	20.750	8.0579e-03
 8.750	21.000	8.0000e-03
 8.750	21.250	7.9749e-03
 8.750	21.500	7.9642e-03
 8.750	21.750	7.9594e-03
 8.750	22.000	7.9572e-03
 8.750	22.250	7.9560e-03
 8.750	22.500	7.9555e-03
 8.750	22.750	7.9551e-03
 8.750	23.000	7.9558e-03
 8.750	23.250	7.9549e-03
 8.750	23.500	7.9551e-03
 8.750	23.750	7.9548e-03
 8.750	24.000	7.9548e-03
 9.000	17.000	5.8581e-03
 9.000	17.250	6.0678e-03
 9.000	17.500	6.6190e-03
 9.000	17.750	7.6585e-03
 9.000	18.000	9.2913e-03
 9.000	18.250	1.0984e-02
 9.000	18.500	1.1578e-02
 9.000	18.750	1.2620e-02
 9.000	19.000	1.2240e-02
 9.000	19.250	1.1826e-02
 9.000	19.500	1.1170e-02
 9.000	19.750	1.0124e-02
 9.000	20.000	9.2452e-03
 9.000	20.250	8.7050e-03
 9.000	20.500	8.3488e-03
 9.000	20.750	8.1596e-03
 9.000	21.000	8.0579e-03
 9.000	21.250	8.0000e-03
 9.000	21.500	7.9749e-03
 9.000	21.750	7.9641e-03
 9.000	22.000	7.9594e-03
 9.000	22.250	7.9572e-03
 9.000	22.500	7.9560e-03
 9.000	22.750	7.9555e-03
 9.000	23.000	7.9551e-03
 9.000	23.250	7.9550e-03
 9.000	23.500	7.9549e-03
 9.000	23.750	7.9548e-03
 9.000	24.000	7.9549e-03
 9.250	17.000	5.1500e-03
 9.250	17.250	5.2524e-03
 9.250	17.500	5.5904e-03
 9.250	17.750	6.2559e-03
 9.250	18.000	7.4116e-03
 9.250	18.250	9.1394e-03
 9.250	18.500	1.0780e-02
 9.250	18.750	1.1482e-02
 9.250	19.000	1.2589e-02
 9.250	19.250	1.2220e-02
 9.250	19.500	1.1827e-02
 9.250	19.750	1.1186e-02
 9.250	20.000	1.0129e-02
 9.250	20.250	9.2457e-03
 9.250	20.500	8.7049e-03
 9.250	20.750	8.3487e-03
 9.250	21.000	8.1596e-03
 9.250	21.250	8.0579e-03
 9.250	21.500	7.9996e-03
 9.250	21.750	7.9743e-03
 9.250	22.000	7.9635e-03
 9.250	22.250	7.9589e-03
 9.250	22.500	7.9569e-03
 9.250	22.750	7.9557e-03
 9.250	23.000	7.9552e-03
 9.250	23.250	7.9550e-03
 9.250	23.500	7.9548e-03
 9.250	23.750	7.9547e-03
 9.250	24.000	7.9547e-03
 9.500	17.000	4.6427e-03
 9.500	17.250	4.6922e-03
 9.500	17.500	4.9288e-03
 9.500	17.750	5.3877e-03
 9.500	18.000	6.1569e-03
 9.500	18.250	7.4314e-03
 9.500	18.500	9.2733e-03
 9.500	18.750	1.0631e-02
 9.500	19.000	1.1417e-02
 9.500	19.250	1.2558e-02
 9.500	19.500	1.2197e-02
 9.500	19.750	1.1822e-02
 9.500	20.000	1.1199e-02
 9.500	20.250	1.0134e-02
 9.500	20.500	9.2463e-03
 9.500	20.750	8.7044e-03
 9.500	21.000	8.3482e-03
 9.500	21.250	8.1591e-03
 9.500	21.500	8.0573e-03
 9.500	21.750	7.9993e-03
 9.500	22.000	7.9741e-03
 9.500	22.250	7.9634e-03
 9.500	22.500	7.9586e-03
 9.500	22.750	7.9564e-03
 9.500	23.000	7.9553e-03
 9.500	23.250	7.9547e-03
 9.500	23.500	7.9544e-03
 9.500	23.750	7.9542e-03
 9.500	24.000	7.9542e-03
 9.750	17.000	4.2956e-03
 9.750	17.250	4.2780e-03
 9.750	17.500	4.4548e-03
 9.750	17.750	4.8113e-03
 9.750	18.000	5.3941e-03
 9.750	18.250	6.3300e-03
 9.750	18.500	7.7677e-03
 9.750	18.750	9.6001e-03
 9.750	19.000	1.0546e-02
 9.750	19.250	1.1370e-02
 9.750	19.500	1.2528e-02
 9.750	19.750	1.2171e-02
 9.750	20.000	1.1812e-02
 9.750	20.250	1.1206e-02
 9.750	20.500	1.0137e-02
 9.750	20.750	9.2465e-03
 9.750	21.000	8.7045e-03
 9.750	21.250	8.3481e-03
 9.750	21.500	8.1591e-03
 9.750	21.750	8.0574e-03
 9.750	22.000	7.9993e-03
 9.750	22.250	7.9742e-03
 9.750	22.500	7.9634e-03
 9.750	22.750	7.9587e-03
 9.750	23.000	7.9565e-03
 9.750	23.250	7.9553e-03
 9.750	23.500	7.9547e-03
 9.750	23.750	7.9544e-03
 9.750	24.000	7.9542e-03
10.000	17.000	4.0841e-03
10.000	17.250	3.9736e-03
10.000	17.500	4.0729e-03
10.000	17.750	4.3826e-03
10.000	18.000	4.9090e-03
10.000	18.250	5.6616e-03
10.000	18.500	6.7508e-03
10.000	18.750	8.2853e-03
10.000	19.000	9.7981e-03
10.000	19.250	1.0488e-02
10.000	19.500	1.1335e-02
10.000	19.750	1.2501e-02
10.000	20.000	1.2146e-02
10.000	20.250	1.1796e-02
10.000	20.500	1.1210e-02
10.000	20.750	1.0140e-02
10.000	21.000	9.2467e-03
10.000	21.250	8.7047e-03
10.000	21.500	8.3481e-03
10.000	21.750	8.1592e-03
10.000	22.000	8.0574e-03
10.000	22.250	7.9993e-03
10.000	22.500	7.9741e-03
10.000	22.750	7.9634e-03
10.000	23.000	7.9587e-03
10.000	23.250	7.9565e-03
10.000	23.500	7.9553e-03
10.000	23.750	7.9547e-03
10.000	24.000	7.9544e-03
10.250	17.000	4.0112e-03
10.250	17.250	3.7978e-03
10.250	17.500	3.7988e-03
10.250	17.750	4.0453e-03
10.250	18.000	4.5416e-03
10.250	18.250	5.2156e-03
10.250	18.500	6.1022e-03
10.250	18.750	7.3071e-03
10.250	19.000	8.8183e-03
10.250	19.250	9.8330e-03
10.250	19.500	1.0474e-02
10.250	19.750	1.1314e-02
10.250	20.000	1.2497e-02
10.250	20.250	1.2131e-02
10.250	20.500	1.1779e-02
10.250	20.750	1.1209e-02
10.250	21.000	1.0141e-02
10.250	21.250	9.2468e-03
10.250	21.500	8.7047e-03
10.250	21.750	8.3481e-03
10.250	22.000	8.1592e-03
10.250	22.250	8.0575e-03
10.250	22.500	7.9994e-03
10.250	22.750	7.9742e-03
10.250	23.000	7.9635e-03
10.250	23.250	7.9587e-03
10.250	23.500	7.9565e-03
10.250	23.750	7.9553e-03
10.250	24.000	7.9547e-03
10.500	17.000	4.0319e-03
10.500	17.250	3.7519e-03
10.500	17.500	3.6514e-03
10.500	17.750	3.8126e-03
10.500	18.000	4.2440e-03
10.500	18.250	4.8695e-03
10.500	18.500	5.6221e-03
10.500	18.750	6.5407e-03
10.500	19.000	7.7386e-03
10.500	19.250	9.1421e-03
10.500	19.500	9.9180e-03
10.500	19.750	1.0533e-02
10.500	20.000	1.1356e-02
10.500	20.250	1.2519e-02
10.500	20.500	1.2132e-02
10.500	20.750	1.1764e-02
10.500	21.000	1.1204e-02
10.500	21.250	1.0141e-02
10.500	21.500	9.2466e-03
10.500	21.750	8.7048e-03
10.500	22.000	8.3483e-03
10.500	22.250	8.1593e-03
10.500	22.500	8.0575e-03
10.500	22.750	7.9995e-03
10.500	23.000	7.9742e-03
10.500	23.250	7.9634e-03
10.500	23.500	7.9587e-03
10.500	23.750	7.9565e-03
10.500	24.000	7.9553e-03
10.750	17.000	4.1000e-03
10.750	17.250	3.7986e-03
10.750	17.500	3.6369e-03
10.750	17.750	3.7080e-03
10.750	18.000	4.0248e-03
10.750	18.250	4.5246e-03
10.750	18.500	5.1377e-03
10.750	18.750	5.8561e-03
10.750	19.000	6.8041e-03
10.750	19.250	8.0715e-03
10.750	19.500	9.3065e-03
10.750	19.750	1.0007e-02
10.750	20.000	1.0674e-02
10.750	20.250	1.1496e-02
10.750	20.500	1.2630e-02
10.750	20.750	1.2161e-02
10.750	21.000	1.1757e-02
10.750	21.250	1.1196e-02
10.750	21.500	1.0140e-02
10.750	21.750	9.2460e-03
10.750	22.000	8.7047e-03
10.750	22.250	8.3483e-03
10.750	22.500	8.1594e-03
10.750	22.750	8.0576e-03
10.750	23.000	7.9996e-03
10.750	23.250	7.9743e-03
10.750	23.500	7.9635e-03
10.750	23.750	7.9587e-03
10.750	24.000	7.9565e-03
11.000	17.000	4.1807e-03
11.000	17.250	3.8914e-03
11.000	17.500	3.7106e-03
11.000	17.750	3.7160e-03
11.000	18.000	3.9035e-03
11.000	18.250	4.2186e-03
11.000	18.500	4.6664e-03
11.000	18.750	5.2473e-03
11.000	19.000	6.0038e-03
11.000	19.250	7.0305e-03
11.000	19.500	8.3795e-03
11.000	19.750	9.4665e-03
11.000	20.000	1.0222e-02
11.000	20.250	1.0992e-02
11.000	20.500	1.1771e-02
11.000	20.750	1.2856e-02
11.000	21.000	1.2270e-02
11.000	21.250	1.1764e-02
11.000	21.500	1.1185e-02
11.000	21.750	1.0138e-02
11.000	22.000	9.2453e-03
11.000	22.250	8.7047e-03
11.000	22.500	8.3483e-03
11.000	22.750	8.1595e-03
11.000	23.000	8.0578e-03
11.000	23.250	7.9996e-03
11.000	23.500	7.9744e-03
11.000	23.750	7.9635e-03
11.000	24.000	7.9588e-03
11.250	17.000	4.2362e-03
11.250	17.250	3.9881e-03
11.250	17.500	3.8114e-03
11.250	17.750	3.7798e-03
11.250	18.000	3.8630e-03
11.250	18.250	4.0033e-03
11.250	18.500	4.2646e-03
11.250	18.750	4.7152e-03
11.250	19.000	5.3207e-03
11.250	19.250	6.1324e-03
11.250	19.500	7.2540e-03
11.250	19.750	8.6755e-03
11.250	20.000	9.6519e-03
11.250	20.250	1.0514e-02
11.250	20.500	1.1340e-02
11.250	20.750	1.2229e-02
11.250	21.000	1.3310e-02
11.250	21.250	1.2463e-02
11.250	21.500	1.1808e-02
11.250	21.750	1.1173e-02
11.250	22.000	1.0135e-02
11.250	22.250	9.2443e-03
11.250	22.500	8.7047e-03
11.250	22.750	8.3482e-03
11.250	23.000	8.1596e-03
11.250	23.250	8.0579e-03
11.250	23.500	7.9996e-03
11.250	23.750	7.9744e-03
11.250	24.000	7.9636e-03
11.500	17.000	4.2231e-03
11.500	17.250	4.0446e-03
11.500	17.500	3.8913e-03
11.500	17.750	3.8388e-03
11.500	18.000	3.8547e-03
11.500	18.250	3.8924e-03
11.500	18.500	4.0052e-03
11.500	18.750	4.2815e-03
11.500	19.000	4.7444e-03
11.500	19.250	5.3826e-03
11.500	19.500	6.2656e-03
11.500	19.750	7.4911e-03
11.500	20.000	8.9918e-03
11.500	20.250	9.9571e-03
11.500	20.500	1.0952e-02
11.500	20.750	1.1920e-02
11.500	21.000	1.2936e-02
11.500	21.250	1.3914e-02
11.500	21.500	1.2769e-02
11.500	21.750	1.1894e-02
11.500	22.000	1.1164e-02
11.500	22.250	1.0130e-02
11.500	22.500	9.2430e-03
11.500	22.750	8.7047e-03
11.500	23.000	8.3481e-03
11.500	23.250	8.1596e-03
11.500	23.500	8.0580e-03
11.500	23.750	7.9997e-03
11.500	24.000	7.9745e-03
11.750	17.000	4.0686e-03
11.750	17.250	4.0031e-03
11.750	17.500	3.9035e-03
11.750	17.750	3.8552e-03
11.750	18.000	3.8439e-03
11.750	18.250	3.8478e-03
11.750	18.500	3.8747e-03
11.750	18.750	3.9881e-03
11.750	19.000	4.2760e-03
11.750	19.250	4.7600e-03
11.750	19.500	5.4423e-03
11.750	19.750	6.4044e-03
11.750	20.000	7.7541e-03
11.750	20.250	9.3494e-03
11.750	20.500	1.0388e-02
11.750	20.750	1.1523e-02
11.750	21.000	1.2722e-02
11.750	21.250	1.4001e-02
11.750	21.500	1.4585e-02
11.750	21.750	1.3165e-02
11.750	22.000	1.2053e-02
11.750	22.250	1.1163e-02
11.750	22.500	1.0125e-02
11.750	22.750	9.2414e-03
11.750	23.000	8.7047e-03
11.750	23.250	8.3480e-03
11.750	23.500	8.1596e-03
11.750	23.750	8.0581e-03
11.750	24.000	7.9999e-03
12.000	17.000	3.7023e-03
12.000	17.250	3.7964e-03
12.000	17.500	3.8004e-03
12.000	17.750	3.8041e-03
12.000	18.000	3.8126e-03
12.000	18.250	3.8125e-03
12.000	18.500	3.8053e-03
12.000	18.750	3.8280e-03
12.000	19.000	3.9517e-03
12.000	19.250	4.2539e-03
12.000	19.500	4.7677e-03
12.000	19.750	5.5025e-03
12.000	20.000	6.5650e-03
12.000	20.250	8.0610e-03
12.000	20.500	9.7728e-03
12.000	20.750	1.0927e-02
12.000	21.000	1.2336e-02
12.000	21.250	1.4001e-02
12.000	21.500	1.5541e-02
12.000	21.750	1.5279e-02
12.000	22.000	1.3647e-02
12.000	22.250	1.2274e-02
12.000	22.500	1.1177e-02
12.000	22.750	1.0119e-02
12.000	23.000	9.2397e-03
12.000	23.250	8.7047e-03
12.000	23.500	8.3478e-03
12.000	23.750	8.1595e-03
12.000	24.000	8.0581e-03
12.250	17.000	3.1258e-03
12.250	17.250	3.3890e-03
12.250	17.500	3.5495e-03
12.250	17.750	3.6567e-03
12.250	18.000	3.7119e-03
12.250	18.250	3.7277e-03
12.250	18.500	3.7193e-03
12.250	18.750	3.7152e-03
12.250	19.000	3.7510e-03
12.250	19.250	3.8927e-03
12.250	19.500	4.2268e-03
12.250	19.750	4.7753e-03
12.250	20.000	5.5793e-03
12.250	20.250	6.7641e-03
12.250	20.500	8.4416e-03
12.250	20.750	1.0307e-02
12.250	21.000	1.1748e-02
12.250	21.250	1.3608e-02
12.250	21.500	1.5755e-02
12.250	21.750	1.7408e-02
12.250	22.000	1.6048e-02
12.250	22.250	1.3977e-02
12.250	22.500	1.2391e-02
12.250	22.750	1.1208e-02
12.250	23.000	1.0113e-02
12.250	23.250	9.2379e-03
12.250	23.500	8.7046e-03
12.250	23.750	8.3477e-03
12.250	24.000	8.1594e-03
12.500	17.000	2.4974e-03
12.500	17.250	2.8779e-03
12.500	17.500	3.1748e-03
12.500	17.750	3.3681e-03
12.500	18.000	3.4839e-03
12.500	18.250	3.5413e-03
12.500	18.500	3.5673e-03
12.500	18.750	3.5817e-03
12.500	19.000	3.6019e-03
12.500	19.250	3.6635e-03
12.500	19.500	3.8312e-03
12.500	19.750	4.2008e-03
12.500	20.000	4.7924e-03
12.500	20.250	5.6808e-03
12.500	20.500	7.0202e-03
12.500	20.750	8.9601e-03
12.500	21.000	1.1140e-02
12.500	21.250	1.3039e-02
12.500	21.500	1.5400e-02
12.500	21.750	1.7950e-02
12.500	22.000	1.8985e-02
12.500	22.250	1.6715e-02
12.500	22.500	1.4462e-02
12.500	22.750	1.2690e-02
12.500	23.000	1.1254e-02
12.500	23.250	1.0109e-02
12.500	23.500	9.2360e-03
12.500	23.750	8.7045e-03
12.500	24.000	8.3473e-03
12.750	17.000	1.9439e-03
12.750	17.250	2.3509e-03
12.750	17.500	2.6805e-03
12.750	17.750	2.9217e-03
12.750	18.000	3.1019e-03
12.750	18.250	3.2328e-03
12.750	18.500	3.3238e-03
12.750	18.750	3.3901e-03
12.750	19.000	3.4430e-03
12.750	19.250	3.4960e-03
12.750	19.500	3.5820e-03
12.750	19.750	3.7725e-03
12.750	20.000	4.1723e-03
12.750	20.250	4.8268e-03
12.750	20.500	5.8247e-03
12.750	20.750	7.3955e-03
12.750	21.000	9.7534e-03
12.750	21.250	1.2338e-02
12.750	21.500	1.4741e-02
12.750	21.750	1.7857e-02
12.750	22.000	2.0503e-02
12.750	22.250	2.0492e-02
12.750	22.500	1.7608e-02
12.750	22.750	1.5058e-02
12.750	23.000	1.2955e-02
12.750	23.250	1.1311e-02
12.750	23.500	1.0106e-02
12.750	23.750	9.2342e-03
12.750	24.000	8.7044e-03
13.000	17.000	1.4980e-03
13.000	17.250	1.8076e-03
13.000	17.500	2.1070e-03
13.000	17.750	2.3737e-03
13.000	18.000	2.6060e-03
13.000	18.250	2.8142e-03
13.000	18.500	2.9860e-03
13.000	18.750	3.1206e-03
13.000	19.000	3.2286e-03
13.000	19.250	3.3188e-03
13.000	19.500	3.3954e-03
13.000	19.750	3.5007e-03
13.000	20.000	3.7118e-03
13.000	20.250	4.1395e-03
13.000	20.500	4.8834e-03
13.000	20.750	6.0320e-03
13.000	21.000	7.8751e-03
13.000	21.250	1.0756e-02
13.000	21.500	1.3779e-02
13.000	21.750	1.7108e-02
13.000	22.000	2.0377e-02
13.000	22.250	2.3042e-02
13.000	22.500	2.1980e-02
13.000	22.750	1.8453e-02
13.000	23.000	1.5541e-02
13.000	23.250	1.3200e-02
13.000	23.500	1.1379e-02
13.000	23.750	1.0106e-02
13.000	24.000	9.2327e-03
13.250	17.000	1.2285e-03
13.250	17.250	1.4427e-03
13.250	17.500	1.6505e-03
13.250	17.750	1.8627e-03
13.250	18.000	2.0951e-03
13.250	18.250	2.3397e-03
13.250	18.500	2.5742e-03
13.250	18.750	2.7783e-03
13.250	19.000	2.9483e-03
13.250	19.250	3.0899e-03
13.250	19.500	3.2042e-03
13.250	19.750	3.3081e-03
13.250	20.000	3.4295e-03
13.250	20.250	3.6467e-03
13.250	20.500	4.0983e-03
13.250	20.750	4.9056e-03
13.250	21.000	6.2644e-03
13.250	21.250	8.4368e-03
13.250	21.500	1.1587e-02
13.250	21.750	1.5008e-02
13.250	22.000	1.8997e-02
13.250	22.250	2.2967e-02
13.250	22.500	2.5483e-02
13.250	22.750	2.3575e-02
13.250	23.000	1.9362e-02
13.250	23.250	1.5781e-02
13.250	23.500	1.3294e-02
13.250	23.750	1.1451e-02
13.250	24.000	1.0111e-02
13.500	17.000	1.0526e-03
13.500	17.250	1.2106e-03
13.500	17.500	1.3634e-03
13.500	17.750	1.5120e-03
13.500	18.000	1.6929e-03
13.500	18.250	1.9118e-03
13.500	18.500	2.1519e-03
13.500	18.750	2.3909e-03
13.500	19.000	2.6091e-03
13.500	19.250	2.7998e-03
13.500	19.500	2.9599e-03
13.500	19.750	3.0948e-03
13.500	20.000	3.2142e-03
13.500	20.250	3.3570e-03
13.500	20.500	3.5905e-03
13.500	20.750	4.0499e-03
13.500	21.000	4.8571e-03
13.500	21.250	6.3640e-03
13.500	21.500	8.5429e-03
13.500	21.750	1.1960e-02
13.500	22.000	1.5895e-02
13.500	22.250	2.0599e-02
13.500	22.500	2.5383e-02
13.500	22.750	2.8030e-02
13.500	23.000	2.5273e-02
13.500	23.250	2.0406e-02
13.500	23.500	1.6495e-02
13.500	23.750	1.3638e-02
13.500	24.000	1.1519e-02
13.750	17.000	9.3580e-04
13.750	17.250	1.0596e-03
13.750	17.500	1.1817e-03
13.750	17.750	1.2982e-03
13.750	18.000	1.4396e-03
13.750	18.250	1.6160e-03
13.750	18.500	1.8161e-03
13.750	18.750	2.0288e-03
13.750	19.000	2.2506e-03
13.750	19.250	2.4702e-03
13.750	19.500	2.6707e-03
13.750	19.750	2.8453e-03
13.750	20.000	2.9972e-03
13.750	20.250	3.1397e-03
13.750	20.500	3.3073e-03
13.750	20.750	3.5670e-03
13.750	21.000	4.0376e-03
13.750	21.250	4.8656e-03
13.750	21.500	6.3439e-03
13.750	21.750	8.7784e-03
13.750	22.000	1.2452e-02
13.750	22.250	1.7113e-02
13.750	22.500	2.2612e-02
13.750	22.750	2.8237e-02
13.750	23.000	3.0843e-02
13.750	23.250	2.7014e-02
13.750	23.500	2.1279e-02
13.750	23.750	1.6970e-02
13.750	24.000	1.3852e-02
14.000	17.000	8.5218e-04
14.000	17.250	9.5934e-04
14.000	17.500	1.0653e-03
14.000	17.750	1.1624e-03
14.000	18.000	1.2795e-03
14.000	18.250	1.4258e-03
14.000	18.500	1.5890e-03
14.000	18.750	1.7620e-03
14.000	19.000	1.9440e-03
14.000	19.250	2.1446e-03
14.000	19.500	2.3590e-03
14.000	19.750	2.5660e-03
14.000	20.000	2.7537e-03
14.000	20.250	2.9265e-03
14.000	20.500	3.0992e-03
14.000	20.750	3.3059e-03
14.000	21.000	3.6164e-03
14.000	21.250	4.1497e-03
14.000	21.500	5.0446e-03
14.000	21.750	6.6466e-03
14.000	22.000	9.3111e-03
14.000	22.250	1.3650e-02
14.000	22.500	1.9022e-02
14.000	22.750	2.5033e-02
14.000	23.000	3.1424e-02
14.000	23.250	3.3905e-02
14.000	23.500	2.8795e-02
14.000	23.750	2.2127e-02
14.000	24.000	1.7464e-02
